Jaz Data File
++++++++++++++++++++++++++++++++++++
Date: Thu Sep 26 04:29:41 2019
User: jaz
Dark Spectrum Present: Yes
Reference Spectrum Present: Yes
Processed Spectrum Present: Yes
Spectrometers: JAZA3541
Integration Time (usec): 100000 (JAZA3541)
Spectra Averaged: 1 (JAZA3541)
Boxcar Smoothing: 10 (JAZA3541)
Correct for Electrical Dark: No (JAZA3541)
Strobe/Lamp Enabled: Yes (JAZA3541)
Correct for Detector Non-linearity: No (JAZA3541)
Correct for Stray Light: No (JAZA3541)
Number of Pixels in Processed Spectrum: 2048
>>>>>Begin Processed Spectral Data<<<<<
W	D	R	S	P
190.543274	0.000000	0.000000	0.000000	0.000000
190.921555	0.000000	0.000000	0.000000	0.000000
191.299805	1296.805664	1336.172974	1181.019409	-294.117767
191.678024	1229.649658	1322.278564	1162.493652	-72.500053
192.056229	1345.435913	1313.015747	1178.703735	514.285400
192.434387	1331.541504	1278.279907	1264.385498	126.087105
192.812531	1303.752808	1324.594360	1252.806885	-244.443985
193.190659	1310.699951	1296.805664	1215.755249	683.336243
193.568741	1319.962891	1359.330200	1185.650879	-341.176514
193.946793	0.000000	0.000000	0.000000	0.000000
194.324829	1207.815674	1211.785522	1090.265137	-2961.083496
194.702835	1271.994385	1273.317627	1147.165771	-9433.541992
195.080811	1337.606445	1335.070313	1205.610352	5204.620605
195.458755	1337.827148	1332.203125	1202.853516	2399.947998
195.836685	1338.268188	1331.541626	1204.728027	1985.265991
196.214569	1339.811890	1336.172974	1207.154053	3645.531738
196.592422	1341.907104	1340.032471	1205.610229	7270.586914
196.970261	1342.679077	1342.127686	1202.632935	25398.671875
197.348068	1343.781860	1343.120117	1203.404907	21213.207031
197.725861	1344.222900	1342.127563	1204.728027	6657.395996
198.103622	1343.561279	1338.157837	1209.580078	2479.552734
198.481323	1340.253052	1337.496216	1206.492432	4851.961426
198.859039	1337.937378	1335.290771	1208.587646	4887.380859
199.236694	1335.070313	1335.621460	1205.500000	-23509.191406
199.614334	1333.416138	1335.511230	1206.271973	-6068.665039
199.991959	1329.115479	1337.937134	1205.941162	-1396.272217
200.369553	1324.373657	1337.826904	1206.602661	-875.409424
200.747101	1322.499023	1341.355835	1205.169067	-622.215271
201.124619	1320.514038	1341.576294	1205.169067	-547.638245
201.502136	1316.323608	1346.538452	1200.537720	-383.208618
201.879623	1313.677246	1349.736450	1204.948608	-301.528107
202.257065	1311.030640	1351.500854	1206.271729	-258.854340
202.634476	1309.927979	1352.934570	1208.918335	-234.870148
203.011871	1305.186279	1354.809082	1210.462280	-190.888046
203.389221	1303.091064	1361.866455	1214.873047	-150.093460
203.766571	1304.745117	1367.931519	1217.188843	-138.568222
204.143875	1300.334229	1365.064331	1215.645142	-130.834167
204.521164	1296.254272	1365.284912	1214.211548	-118.849724
204.898392	1297.798096	1363.300049	1215.093628	-126.262596
205.275620	1298.459717	1368.703369	1215.424438	-118.210365
205.652817	1293.718018	1368.482910	1212.777954	-108.259453
206.029984	1293.607666	1372.673218	1213.439575	-101.394463
206.407135	1291.953613	1374.988892	1212.667725	-95.484581
206.784225	1292.394775	1374.437378	1213.990845	-95.564903
207.161301	1293.607910	1372.893555	1214.321655	-100.000771
207.538376	1298.570190	1373.555176	1216.747803	-109.118362
207.915405	1302.209229	1370.798462	1218.622314	-121.865936
208.292404	1303.422119	1370.798584	1220.497070	-123.077171
208.669373	1305.406860	1366.718506	1223.694824	-133.273270
209.046310	1302.319336	1363.961670	1224.687500	-125.939156
209.423218	1303.863159	1361.645874	1228.326416	-130.725494
209.800095	1305.737793	1357.124756	1231.855103	-143.777115
210.176956	1308.715210	1353.265137	1232.957886	-170.050385
210.553787	1308.163818	1355.911743	1233.068115	-157.275330
210.930603	1309.597412	1356.242554	1232.516846	-165.248871
211.307358	1315.221313	1353.485718	1232.957886	-214.986832
211.684113	1317.316406	1349.846680	1235.604492	-251.187302
212.060837	1316.985596	1348.413086	1239.133057	-247.721146
212.437531	1316.765015	1350.839233	1241.669312	-220.388626
212.814178	1314.008179	1354.037109	1243.874756	-175.206833
213.190826	1312.574585	1351.280273	1242.882202	-180.057205
213.567413	1313.125977	1352.383057	1246.080078	-170.786774
213.943985	1310.258789	1357.345337	1246.741699	-134.894348
214.320541	1309.266479	1357.124756	1250.601318	-122.581017
214.697052	1307.612305	1361.315186	1249.388428	-108.418533
215.073563	1309.266357	1363.300049	1249.167847	-111.224144
215.449997	1303.863159	1360.874023	1252.145264	-90.715858
215.826431	1301.326904	1362.086914	1247.513794	-88.566658
216.202850	1300.334351	1364.954102	1243.543945	-87.883972
216.579224	1298.459717	1369.695923	1241.889893	-79.411621
216.955582	1300.885742	1374.989014	1241.669312	-79.910683
217.331894	1300.554932	1374.217041	1243.654175	-77.245628
217.708191	1300.003418	1376.863647	1237.920044	-80.774384
218.084442	1300.113770	1383.480103	1236.596802	-76.190193
218.460678	1296.915771	1384.141602	1235.052979	-70.922562
218.836899	1295.041260	1385.685303	1234.281006	-67.031715
219.213074	1292.615234	1387.339478	1235.824829	-59.953400
219.589233	1294.269287	1392.191650	1235.163208	-60.360142
219.965347	1296.805542	1398.697510	1233.729736	-61.904591
220.341431	1295.592529	1399.359131	1235.383789	-58.023235
220.717499	1296.254150	1400.241455	1234.391357	-59.490715
221.093552	1295.041260	1402.336548	1233.950317	-56.937210
221.469543	1299.011108	1407.078247	1235.494141	-58.775471
221.845535	1302.980835	1407.409058	1237.037964	-63.146599
222.221466	1305.296631	1411.709595	1236.376343	-64.766815
222.597397	1305.186279	1417.884766	1240.456421	-57.436317
222.973297	1302.760376	1426.706543	1241.779541	-49.199451
223.349167	1300.554932	1437.403076	1238.140625	-45.608440
223.725006	1297.467285	1446.996826	1245.308350	-34.882027
224.100800	1295.041260	1454.385010	1248.837036	-28.996571
224.476578	1295.372070	1465.081543	1248.947388	-27.355387
224.852325	1297.577515	1475.778076	1254.461060	-24.195465
225.228058	1298.680298	1495.847778	1257.328003	-20.973183
225.603760	1297.577637	1523.195313	1267.583374	-13.294288
225.979416	1295.261963	1552.086792	1273.538086	-8.458635
226.355057	1295.372192	1590.351318	1281.588013	-4.672934
226.730652	1296.805664	1642.069214	1290.409790	-1.852461
227.106232	1296.915894	1691.912231	1298.680298	0.446689
227.481796	1294.159180	1736.903687	1308.053345	3.138190
227.857315	1292.946167	1778.145630	1317.867798	5.136368
228.232788	1296.033813	1815.638184	1324.373779	5.454143
228.608246	1296.695435	1848.058350	1332.644287	6.519998
228.983704	1297.026245	1883.345459	1340.473755	7.410214
229.359100	1297.577637	1916.206665	1347.090088	8.003577
229.734482	1293.166748	1945.870117	1350.508423	8.785258
230.109833	1290.189453	1973.768921	1356.132446	9.646719
230.485153	1290.189331	1989.979126	1361.866577	10.242682
230.860443	1289.527710	2012.585205	1365.726074	10.538355
231.235703	1293.166748	2031.331421	1373.996582	10.950109
231.610931	1293.607788	2055.481445	1373.004028	10.421182
231.986145	1293.056396	2079.300049	1377.966309	10.799440
232.361313	1290.189209	2098.708252	1385.685303	11.811236
232.736465	1287.983765	2121.313965	1390.206421	12.266765
233.111572	1285.888550	2134.656982	1394.286865	12.771247
233.486664	1288.865845	2141.052734	1397.043579	12.694133
233.861725	1290.409668	2141.604248	1402.667358	13.188252
234.236755	1292.284302	2138.957520	1404.541992	13.258679
234.611771	1296.474731	2120.873047	1407.298828	13.443028
234.986740	1298.900635	2101.023926	1409.835083	13.830099
235.361679	1299.782959	2083.710938	1407.850220	13.785356
235.736588	1298.570068	2073.235107	1408.181152	14.149481
236.111496	1297.908447	2069.375488	1413.033081	14.922819
236.486343	1298.459717	2071.139893	1417.885010	15.455980
236.861160	1301.106323	2071.250000	1430.676758	16.824190
237.235962	1300.334351	2079.961426	1440.711548	18.005686
237.610733	1302.760376	2089.996338	1453.282471	19.120327
237.985474	1301.437134	2106.978271	1467.507568	20.616009
238.360199	1300.665283	2140.501221	1482.394409	21.638645
238.734879	1301.767944	2177.662842	1505.992798	23.316137
239.109543	1300.334473	2227.616455	1530.142334	24.782953
239.484177	1304.635132	2281.650146	1566.752930	26.828430
239.858749	1310.810303	2350.680908	1605.789429	28.366907
240.233322	1311.361694	2434.047119	1645.928589	29.800591
240.607864	1313.126099	2511.899414	1689.375977	31.386240
240.982391	1314.559570	2592.618896	1734.367188	32.847271
241.356857	1316.213745	2651.063232	1773.513916	34.258556
241.731308	1315.000610	2704.435059	1804.831421	35.253971
242.105728	1317.977905	2744.684814	1834.053589	36.172508
242.480118	1312.354126	2785.926758	1857.982666	37.027596
242.854492	1310.479492	2835.880127	1885.881836	37.721390
243.228836	1309.045898	2893.442383	1917.971191	38.432632
243.603134	1312.905518	2957.290283	1961.969849	39.471561
243.977402	1312.023193	3046.721436	2011.041260	40.296234
244.351654	1310.920532	3168.241699	2070.257324	40.883442
244.725861	1310.810303	3315.235107	2138.737061	41.304955
245.100067	1311.912964	3466.970215	2217.912598	42.040630
245.474213	1311.361694	3603.377197	2295.434082	42.934803
245.848343	1316.985474	3710.341553	2358.179199	43.503506
246.222443	1318.198486	3794.700195	2411.771729	44.157986
246.596512	1318.419067	3855.019287	2456.101074	44.850666
246.970566	1321.286133	3892.181641	2485.323486	45.277504
247.344574	1320.845093	3904.862793	2493.704346	45.388981
247.718567	1317.206055	3891.740234	2494.476074	45.727497
248.092529	1318.749756	3859.430420	2490.837158	46.132813
248.466431	1315.441650	3833.075195	2481.464111	46.314224
248.840332	1313.236206	3807.051025	2471.870117	46.460300
249.214203	1311.030640	3809.476563	2476.391357	46.643425
249.588043	1313.787598	3825.797363	2483.338623	46.558380
249.961838	1310.038330	3853.696045	2496.791992	46.655399
250.335617	1313.677124	3886.888428	2518.185059	46.809521
250.709381	1313.456665	3901.664795	2530.976318	47.041027
251.083084	1318.198608	3899.569824	2535.387207	47.152794
251.456787	1314.780029	3882.367188	2518.846436	46.894859
251.830460	1316.434204	3829.656738	2494.696777	46.882538
252.204071	1313.456787	3746.069824	2460.071289	47.135098
252.577667	1310.038452	3638.995117	2413.977295	47.400578
252.951248	1310.369263	3513.615234	2354.430176	47.387394
253.324799	1308.604858	3406.099365	2296.978027	47.121605
253.698303	1305.737671	3326.152100	2249.119873	46.692509
254.071793	1305.296631	3267.817627	2211.186035	46.159477
254.445236	1304.083618	3233.853760	2180.640625	45.422871
254.818665	1300.113770	3219.959473	2166.084717	45.106277
255.192062	1300.003418	3219.077393	2167.848877	45.222095
255.565430	1300.444458	3243.888672	2178.435303	45.177055
255.938782	1301.878052	3283.365967	2195.747803	45.111038
256.312103	1304.745117	3340.266846	2218.684570	44.899517
256.685364	1306.730225	3419.442383	2248.678955	44.584812
257.058594	1304.965820	3518.357178	2281.539795	44.121162
257.431793	1302.098633	3646.714600	2336.676270	44.125675
257.804993	1302.760254	3790.178955	2396.223633	43.959763
258.178162	1299.672729	3928.240234	2453.675293	43.902340
258.551270	1298.128906	4052.517578	2504.069824	43.782524
258.924377	1294.379639	4145.587402	2547.186279	43.939507
259.297485	1293.938599	4222.999023	2586.112793	44.115654
259.670502	1293.056396	4286.625977	2607.505615	43.909092
260.043518	1295.151489	4346.063477	2628.898438	43.716335
260.416473	1298.569946	4394.473145	2648.085449	43.590363
260.789459	1297.026123	4449.830078	2673.668701	43.664070
261.162354	1297.246704	4497.467773	2693.076904	43.616680
261.535278	1298.349365	4541.796875	2714.469971	43.660969
261.908142	1298.790527	4576.092285	2730.790039	43.694466
262.280975	1301.216553	4595.279297	2740.384033	43.689739
262.653717	1302.870605	4609.834961	2745.125732	43.612659
263.026520	1300.113892	4627.809570	2752.072754	43.632561
263.399261	1297.357056	4643.688477	2753.285889	43.508205
263.771973	1296.915894	4654.495605	2752.072998	43.339466
264.144653	1298.239258	4653.502930	2748.213623	43.214916
264.517334	1301.106323	4633.103027	2740.494873	43.198982
264.889954	1302.208862	4586.678223	2725.387451	43.330551
265.262543	1305.627563	4506.179199	2686.130371	43.133274
265.635071	1308.053589	4405.610840	2638.712891	42.958347
266.007599	1311.802856	4310.224609	2586.002686	42.495682
266.380127	1312.133545	4240.201660	2546.415039	42.153442
266.752594	1315.882935	4205.575684	2523.367676	41.785919
267.125031	1315.000732	4197.084473	2508.150146	41.398846
267.497437	1313.236328	4212.963867	2508.921875	41.234409
267.869843	1316.544556	4239.098633	2517.854004	41.104778
268.242218	1313.567261	4277.473633	2527.116699	40.944260
268.614532	1311.913208	4335.697754	2545.091309	40.782604
268.986816	1312.354126	4430.973633	2576.518799	40.536034
269.359100	1311.471924	4539.150879	2609.931396	40.228893
269.731354	1310.038452	4652.510742	2647.865234	40.025070
270.103516	1311.030762	4749.219727	2686.460938	40.004498
270.475708	1311.361572	4830.049805	2715.241943	39.897835
270.847839	1314.890381	4902.499023	2738.509277	39.681557
271.219971	1318.419067	4961.053711	2755.491455	39.451454
271.592041	1320.403809	5006.596191	2765.746582	39.209641
271.964081	1321.065552	5036.369629	2776.773926	39.181404
272.336151	1316.434204	5064.048340	2779.420654	39.037807
272.708130	1316.654785	5090.182129	2778.097168	38.728813
273.080109	1313.015869	5107.385254	2778.538330	38.623611
273.452026	1311.582275	5141.238770	2785.264893	38.480804
273.823914	1310.369263	5176.085449	2794.748535	38.398556
274.195770	1310.369263	5215.893555	2809.194336	38.377052
274.567627	1309.376831	5261.987793	2816.582520	38.131901
274.939423	1310.700073	5304.332031	2836.652100	38.209633
275.311249	1312.243896	5345.464355	2848.892578	38.099792
275.682983	1310.479492	5376.120117	2855.398682	37.999405
276.054688	1309.707520	5401.151855	2859.368652	37.875648
276.426422	1307.943115	5403.577148	2850.546875	37.664589
276.798065	1312.243896	5370.495117	2832.352051	37.457222
277.169708	1313.236206	5325.172852	2815.369873	37.441612
277.541321	1317.757446	5277.536133	2796.623535	37.347191
277.912903	1316.985352	5267.832031	2786.368164	37.191593
278.284424	1316.764893	5279.741211	2786.257813	37.080536
278.655945	1315.882813	5301.685547	2786.478271	36.895840
279.027435	1312.574707	5332.010254	2805.003906	37.130318
279.398865	1310.920532	5391.226563	2831.248779	37.260151
279.770294	1307.502075	5467.424805	2849.112793	37.058636
280.141663	1310.810303	5539.763672	2880.541016	37.118660
280.513031	1313.015869	5615.631348	2908.219238	37.075203
280.884369	1315.993164	5680.912598	2943.506104	37.286209
281.255676	1314.559570	5725.462402	2963.575684	37.385002
281.626953	1313.787720	5763.727051	2987.504883	37.612133
281.998199	1316.654907	5805.189453	3004.817627	37.610554
282.369385	1313.346680	5856.245605	3031.503418	37.820713
282.740540	1313.236328	5915.572754	3047.382813	37.679699
283.111694	1311.802856	5983.280273	3080.685303	37.865589
283.482819	1310.479492	6070.064941	3113.546387	37.882854
283.853912	1314.559570	6165.339844	3156.001465	37.961765
284.224945	1315.441772	6257.858398	3201.102783	38.152611
284.595978	1313.346436	6348.502930	3242.344482	38.310589
284.966980	1311.030762	6425.914551	3286.674561	38.625389
285.337952	1309.817749	6500.238281	3321.740967	38.762241
285.708893	1306.730103	6535.746094	3349.529785	39.066616
286.079803	1305.406860	6558.352051	3374.561768	39.390373
286.450684	1304.745239	6574.893066	3399.483154	39.747231
286.821533	1307.391846	6588.677246	3413.488037	39.878479
287.192322	1306.399414	6596.506836	3436.534912	40.266396
287.563110	1307.391968	6602.571289	3474.358643	40.923389
287.933868	1303.642700	6627.272461	3503.581055	41.324032
288.304596	1299.672852	6668.735352	3548.240967	41.880089
288.675262	1300.885742	6725.304199	3591.247314	42.223171
289.045929	1301.326782	6777.683594	3645.612061	42.807384
289.416565	1300.113770	6826.645020	3688.177490	43.210896
289.787170	1296.805664	6843.957520	3723.023926	43.738091
290.157745	1293.718018	6845.170898	3752.246338	44.286213
290.528259	1293.497437	6840.870605	3787.092285	44.950912
290.898773	1294.820801	6830.614746	3807.712891	45.393528
291.269226	1294.269287	6813.852539	3834.508545	46.022305
291.639679	1290.630371	6797.202148	3860.863525	46.675739
292.010101	1294.820801	6810.876465	3898.687012	47.205219
292.380463	1293.828369	6840.539551	3953.823242	47.956257
292.750824	1298.680298	6882.332031	3998.373047	48.349949
293.121155	1300.775391	6928.756836	4048.988525	48.831242
293.491455	1307.502197	6990.068359	4105.337891	49.235424
293.861725	1310.920532	7072.000977	4164.223145	49.527214
294.231964	1313.125977	7184.479004	4239.539551	49.842236
294.602142	1314.669678	7298.721680	4321.250977	50.243237
294.972321	1314.669800	7398.077148	4394.803223	50.631714
295.342468	1316.213623	7496.991699	4449.719238	50.697590
295.712555	1317.095825	7559.295410	4496.474609	50.933632
296.082672	1318.419067	7583.776855	4528.233398	51.231144
296.452728	1315.882813	7585.761719	4542.458496	51.461533
296.822693	1319.080688	7589.400879	4546.869629	51.477261
297.192657	1321.065552	7589.180664	4560.764160	51.685371
297.562622	1322.388916	7606.824219	4575.871094	51.770477
297.932556	1326.027954	7627.886230	4590.537598	51.802334
298.302460	1328.233398	7634.833496	4605.755371	51.969711
298.672333	1327.792358	7640.347656	4621.744629	52.180965
299.042145	1329.005127	7636.597656	4628.030273	52.302444
299.411957	1330.218140	7623.033691	4624.280762	52.346401
299.781677	1326.027954	7584.768555	4613.584473	52.527447
300.151428	1326.579224	7523.125977	4578.186523	52.474506
300.521149	1326.248291	7458.727051	4544.112305	52.472488
300.890839	1322.829956	7386.829590	4509.486816	52.550411
301.260468	1317.095825	7310.961914	4463.944336	52.501148
301.630096	1318.418945	7223.515625	4424.135254	52.593826
301.999695	1319.080688	7102.436523	4365.139648	52.669403
302.369232	1316.323975	6976.063965	4293.462402	52.602032
302.738739	1314.449219	6859.727051	4218.256836	52.365414
303.108246	1310.699951	6722.106445	4147.461914	52.421902
303.477692	1311.251343	6610.841309	4082.732178	52.296139
303.847137	1311.361816	6522.182129	4029.911377	52.171238
304.216553	1311.361572	6456.680176	3993.852295	52.134590
304.585876	1310.369141	6397.794434	3968.489502	52.248833
304.955231	1309.597046	6350.267090	3933.312988	52.050934
305.324493	1306.619751	6311.010254	3911.809814	52.058086
305.693787	1306.178711	6280.244629	3891.188721	51.969757
306.063049	1306.509521	6274.399414	3872.883545	51.659241
306.432251	1307.391846	6272.414551	3863.730713	51.486954
306.801422	1305.627319	6267.783691	3860.973633	51.496689
307.170593	1304.524658	6268.334961	3857.776123	51.437328
307.539673	1303.642456	6275.171875	3853.254395	51.284256
307.908783	1304.304077	6290.831055	3860.422607	51.260502
308.277832	1302.650146	6307.150879	3870.457520	51.309959
308.646851	1300.444702	6338.357910	3889.424072	51.389919
309.015839	1303.973389	6378.717773	3910.045410	51.353764
309.384796	1298.239258	6410.586914	3924.490967	51.370758
309.753723	1295.151733	6446.205566	3937.062012	51.288731
310.122620	1294.600220	6472.339844	3950.956543	51.303398
310.491486	1296.144165	6484.690430	3962.865967	51.396317
310.860352	1299.342041	6501.231445	3972.790527	51.393795
311.229126	1299.452148	6515.456055	3980.289063	51.396374
311.597931	1298.680298	6523.726074	3977.201660	51.263119
311.966675	1300.224121	6544.016602	3987.787842	51.252289
312.335388	1300.665161	6579.523926	3998.594971	51.108200
312.704071	1298.680298	6617.236816	4024.288330	51.247135
313.072723	1301.326904	6632.564941	4026.493408	51.116951
313.441345	1301.988525	6630.139160	4031.896484	51.235565
313.809875	1302.650146	6611.061523	4022.633545	51.239124
314.178436	1298.459839	6573.018066	4007.195313	51.354736
314.546967	1304.193970	6535.194824	3978.414063	51.122532
314.915466	1304.635132	6494.283691	3955.477295	51.079418
315.283936	1308.604858	6440.911621	3937.833740	51.228992
315.652374	1309.266602	6398.125977	3909.714600	51.100803
316.020752	1307.943237	6345.084961	3878.727783	51.036579
316.389130	1313.236328	6299.542480	3844.433105	50.762962
