Jaz Data File
++++++++++++++++++++++++++++++++++++
Date: Thu Sep 26 04:32:45 2019
User: jaz
Dark Spectrum Present: Yes
Reference Spectrum Present: Yes
Processed Spectrum Present: Yes
Spectrometers: JAZA3541
Integration Time (usec): 100000 (JAZA3541)
Spectra Averaged: 1 (JAZA3541)
Boxcar Smoothing: 10 (JAZA3541)
Correct for Electrical Dark: No (JAZA3541)
Strobe/Lamp Enabled: Yes (JAZA3541)
Correct for Detector Non-linearity: No (JAZA3541)
Correct for Stray Light: No (JAZA3541)
Number of Pixels in Processed Spectrum: 2048
>>>>>Begin Processed Spectral Data<<<<<
W	D	R	S	P
190.543274	0.000000	0.000000	0.000000	0.000000
190.921555	0.000000	0.000000	0.000000	0.000000
191.299805	1296.805664	1336.172974	1104.600586	-488.235229
191.678024	1229.649658	1322.278564	1185.650879	-47.500053
192.056229	1345.435913	1313.015747	1176.387939	521.428467
192.434387	1331.541504	1278.279907	1148.599243	343.478729
192.812531	1303.752808	1324.594360	1153.230713	-722.221130
193.190659	1310.699951	1296.805664	1201.860962	783.336243
193.568741	1319.962891	1359.330200	1146.283569	-441.176514
193.946793	0.000000	0.000000	0.000000	0.000000
194.324829	1207.815674	1211.785522	1053.434204	-3888.850342
194.702835	1271.994385	1273.317627	1110.555298	-12200.267578
195.080811	1337.606445	1335.070313	1164.588867	6822.102539
195.458755	1337.827148	1332.203125	1166.353271	3048.953857
195.836685	1338.268188	1331.541626	1165.471069	2568.876953
196.214569	1339.811890	1336.172974	1164.919556	4806.165527
196.592422	1341.907104	1340.032471	1166.573608	9352.946289
196.970261	1342.679077	1342.127686	1168.779175	31538.365234
197.348068	1343.781860	1343.120117	1171.536011	26029.109375
197.725861	1344.222900	1342.127563	1172.307861	8204.649414
198.103622	1343.561279	1338.157837	1173.520874	3146.890381
198.481323	1340.253052	1337.496216	1172.638672	6079.955078
198.859039	1337.937378	1335.290771	1173.741333	6204.021973
199.236694	1335.070313	1335.621460	1176.387939	-28791.273438
199.614334	1333.416138	1335.511230	1178.593262	-7389.786133
199.991959	1329.115479	1337.937134	1181.681030	-1671.278687
200.369553	1324.373657	1337.826904	1182.232300	-1056.557983
200.747101	1322.499023	1341.355835	1182.893921	-740.343079
201.124619	1320.514038	1341.576294	1187.525513	-631.406860
201.502136	1316.323608	1346.538452	1186.532959	-429.559235
201.879623	1313.677246	1349.736450	1183.996704	-359.632294
202.257065	1311.030640	1351.500854	1189.510376	-300.270874
202.634476	1309.927979	1352.934570	1191.825928	-274.613831
203.011871	1305.186279	1354.809082	1193.921265	-224.221542
203.389221	1303.091064	1361.866455	1197.339722	-179.924530
203.766571	1304.745117	1367.931519	1201.750610	-163.001068
204.143875	1300.334229	1365.064331	1202.632935	-150.936417
204.521164	1296.254272	1365.284912	1203.073975	-134.983963
204.898392	1297.798096	1363.300049	1204.066406	-143.097549
205.275620	1298.459717	1368.703369	1202.412354	-136.734573
205.652817	1293.718018	1368.482910	1203.073975	-121.238777
206.029984	1293.607666	1372.673218	1202.302124	-115.480812
206.407135	1291.953613	1374.988892	1206.271973	-103.187035
206.784225	1292.394775	1374.437378	1206.933472	-104.166985
207.161301	1293.607910	1372.893555	1205.279541	-111.405251
207.538376	1298.570190	1373.555176	1203.845947	-126.324280
207.915405	1302.209229	1370.798462	1205.610352	-140.836792
208.292404	1303.422119	1370.798584	1204.838379	-146.317764
208.669373	1305.406860	1366.718506	1204.066406	-165.287445
209.046310	1302.319336	1363.961670	1200.427490	-165.295242
209.423218	1303.863159	1361.645874	1202.632935	-175.191193
209.800095	1305.737793	1357.124756	1204.617676	-196.781662
210.176956	1308.715210	1353.265137	1202.522583	-238.367676
210.553787	1308.163818	1355.911743	1200.427368	-225.635880
210.930603	1309.597412	1356.242554	1201.860962	-230.970352
211.307358	1315.221313	1353.485718	1201.199219	-297.984772
211.684113	1317.316406	1349.846680	1197.008789	-369.832794
212.060837	1316.985596	1348.413086	1198.883545	-375.792175
212.437531	1316.765015	1350.839233	1199.655518	-343.689453
212.814178	1314.008179	1354.037109	1196.898804	-292.561829
213.190826	1312.574585	1351.280273	1194.583008	-304.842987
213.567413	1313.125977	1352.383057	1195.906372	-298.594818
213.943985	1310.258789	1357.345337	1194.693237	-245.432205
214.320541	1309.266479	1357.124756	1191.495483	-246.082825
214.697052	1307.612305	1361.315186	1189.731079	-219.506332
215.073563	1309.266357	1363.300049	1188.848877	-222.856293
215.449997	1303.863159	1360.874023	1190.172119	-199.419952
215.826431	1301.326904	1362.086914	1184.879150	-191.651962
216.202850	1300.334351	1364.954102	1187.194702	-175.085251
216.579224	1298.459717	1369.695923	1189.069336	-153.560089
216.955582	1300.885742	1374.989014	1192.267090	-146.577408
217.331894	1300.554932	1374.217041	1188.076782	-152.694717
217.708191	1300.003418	1376.863647	1188.187012	-145.480194
218.084442	1300.113770	1383.480103	1188.407593	-133.994354
218.460678	1296.915771	1384.141602	1190.392456	-122.123589
218.836899	1295.041260	1385.685303	1189.510376	-116.423409
219.213074	1292.615234	1387.339478	1190.392334	-107.916306
219.589233	1294.269287	1392.191650	1192.046631	-104.391533
219.965347	1296.805542	1398.697510	1187.304932	-107.467361
220.341431	1295.592529	1399.359131	1184.548218	-107.013535
220.717499	1296.254150	1400.241455	1184.548218	-107.422661
221.093552	1295.041260	1402.336548	1186.092163	-101.541359
221.469543	1299.011108	1407.078247	1186.643433	-103.979507
221.845535	1302.980835	1407.409058	1186.422852	-111.615402
222.221466	1305.296631	1411.709595	1188.959229	-109.326340
222.597397	1305.186279	1417.884766	1190.613159	-101.663406
222.973297	1302.760376	1426.706543	1193.259766	-88.345299
223.349167	1300.554932	1437.403076	1194.583008	-77.437607
223.725006	1297.467285	1446.996826	1198.773315	-66.002991
224.100800	1295.041260	1454.385010	1202.633057	-57.992989
224.476578	1295.372070	1465.081543	1202.632935	-54.645821
224.852325	1297.577515	1475.778076	1200.537720	-54.455379
225.228058	1298.680298	1495.847778	1205.389648	-47.315434
225.603760	1297.577637	1523.195313	1206.933594	-40.175949
225.979416	1295.261963	1552.086792	1210.572510	-32.975571
226.355057	1295.372192	1590.351318	1216.527222	-26.729000
226.730652	1296.805664	1642.069214	1220.938232	-21.973774
227.106232	1296.915894	1691.912231	1228.657227	-17.280836
227.481796	1294.159180	1736.903687	1235.824829	-13.175624
227.857315	1292.946167	1778.145630	1242.661865	-10.363635
228.232788	1296.033813	1815.638184	1251.704224	-8.531412
228.608246	1296.695435	1848.058350	1258.761475	-6.880035
228.983704	1297.026245	1883.345459	1264.054688	-5.623482
229.359100	1297.577637	1916.206665	1272.986694	-3.975071
229.734482	1293.166748	1945.870117	1282.800903	-1.588140
230.109833	1290.189453	1973.768921	1287.211914	-0.435581
230.485153	1290.189331	1989.979126	1291.402222	0.173322
230.860443	1289.527710	2012.585205	1296.143921	0.915033
231.235703	1293.166748	2031.331421	1299.010986	0.791726
231.610931	1293.607788	2055.481445	1301.216431	0.998675
231.986145	1293.056396	2079.300049	1300.665039	0.967721
232.361313	1290.189209	2098.708252	1303.863037	1.691219
232.736465	1287.983765	2121.313965	1313.567017	3.070002
233.111572	1285.888550	2134.656982	1318.529297	3.845660
233.486664	1288.865845	2141.052734	1324.153198	4.140800
233.861725	1290.409668	2141.604248	1324.925171	4.054949
234.236755	1292.284302	2138.957520	1325.035400	3.868210
234.611771	1296.474731	2120.873047	1330.990112	4.186736
234.986740	1298.900635	2101.023926	1334.298218	4.412985
235.361679	1299.782959	2083.710938	1335.842041	4.599795
235.736588	1298.570068	2073.235107	1340.693970	5.437692
236.111496	1297.908447	2069.375488	1344.222778	6.003410
236.486343	1298.459717	2071.139893	1349.626099	6.621935
236.861160	1301.106323	2071.250000	1350.618652	6.428973
237.235962	1300.334351	2079.961426	1354.919312	7.001420
237.610733	1302.760376	2089.996338	1359.991821	7.269923
237.985474	1301.437134	2106.978271	1372.893677	8.870626
238.360199	1300.665283	2140.501221	1386.567627	10.228467
238.734879	1301.767944	2177.662842	1397.374390	10.915287
239.109543	1300.334473	2227.616455	1414.135742	12.272563
239.484177	1304.635132	2281.650146	1438.395630	13.690731
239.858749	1310.810303	2350.680908	1469.271973	15.238595
240.233322	1311.361694	2434.047119	1501.140869	16.904037
240.607864	1313.126099	2511.899414	1533.891724	18.415960
240.982391	1314.559570	2592.618896	1565.981201	19.672140
241.356857	1316.213745	2651.063232	1592.336304	20.685671
241.731308	1315.000610	2704.435059	1613.508789	21.484150
242.105728	1317.977905	2744.684814	1634.901611	22.213652
242.480118	1312.354126	2785.926758	1657.176758	23.400450
242.854492	1310.479492	2835.880127	1675.040527	23.899363
243.228836	1309.045898	2893.442383	1696.984985	24.484976
243.603134	1312.905518	2957.290283	1731.169434	25.435890
243.977402	1312.023193	3046.721436	1766.897705	26.222113
244.351654	1310.920532	3168.241699	1814.425049	27.109179
244.725861	1310.810303	3315.235107	1880.588501	28.426020
245.100067	1311.912964	3466.970215	1939.474121	29.120396
245.474213	1311.361694	3603.377197	1998.690430	29.987961
245.848343	1316.985474	3710.341553	2041.917603	30.289356
246.222443	1318.198486	3794.700195	2082.056641	30.844240
246.596512	1318.419067	3855.019287	2118.226318	31.530680
246.970566	1321.286133	3892.181641	2144.140381	32.006523
247.344574	1320.845093	3904.862793	2155.939453	32.317673
247.718567	1317.206055	3891.740234	2162.004395	32.813637
248.092529	1318.749756	3859.430420	2161.012207	33.151054
248.466431	1315.441650	3833.075195	2157.483154	33.445755
248.840332	1313.236206	3807.051025	2152.410645	33.650230
249.214203	1311.030640	3809.476563	2156.270264	33.830616
249.588043	1313.787598	3825.797363	2169.172363	34.051807
249.961838	1310.038330	3853.696045	2185.382324	34.412807
250.335617	1313.677124	3886.888428	2197.622559	34.351837
250.709381	1313.456665	3901.664795	2202.143555	34.335991
251.083084	1318.198608	3899.569824	2206.113525	34.397026
251.456787	1314.780029	3882.367188	2196.078613	34.323997
251.830460	1316.434204	3829.656738	2181.081543	34.403931
252.204071	1313.456787	3746.069824	2150.866943	34.424305
252.577667	1310.038452	3638.995117	2105.434570	34.152466
252.951248	1310.369263	3513.615234	2057.907227	33.928936
253.324799	1308.604858	3406.099365	2015.562500	33.704861
253.698303	1305.737671	3326.152100	1988.986572	33.817265
254.071793	1305.296631	3267.817627	1964.395874	33.584316
254.445236	1304.083618	3233.853760	1944.105713	33.165718
254.818665	1300.113770	3219.959473	1933.850220	33.009758
255.192062	1300.003418	3219.077393	1934.071045	33.040291
255.565430	1300.444458	3243.888672	1944.326294	33.130966
255.938782	1301.878052	3283.365967	1960.977661	33.262863
256.312103	1304.745117	3340.266846	1977.628662	33.057056
256.685364	1306.730225	3419.442383	2007.291992	33.159355
257.058594	1304.965820	3518.357178	2037.396362	33.090874
257.431793	1302.098633	3646.714600	2077.094727	33.054287
257.804993	1302.760254	3790.178955	2126.717285	33.124985
258.178162	1299.672729	3928.240234	2171.598145	33.171127
258.551270	1298.128906	4052.517578	2224.529053	33.633602
258.924377	1294.379639	4145.587402	2264.668213	34.030792
259.297485	1293.938599	4222.999023	2295.764648	34.202980
259.670502	1293.056396	4286.625977	2311.313477	34.014812
260.043518	1295.151489	4346.063477	2332.595947	34.004402
260.416473	1298.569946	4394.473145	2354.430176	34.105076
260.789459	1297.026123	4449.830078	2374.610107	34.178593
261.162354	1297.246704	4497.467773	2392.805176	34.233837
261.535278	1298.349365	4541.796875	2402.398682	34.039375
261.908142	1298.790527	4576.092285	2415.410889	34.071331
262.280975	1301.216553	4595.279297	2425.776367	34.138992
262.653717	1302.870605	4609.834961	2429.746338	34.075836
263.026520	1300.113892	4627.809570	2428.643555	33.913246
263.399261	1297.357056	4643.688477	2418.277832	33.497002
263.771973	1296.915894	4654.495605	2413.866943	33.266556
264.144653	1298.239258	4653.502930	2408.904785	33.102184
264.517334	1301.106323	4633.103027	2396.112793	32.863373
264.889954	1302.208862	4586.678223	2383.210938	32.912533
265.262543	1305.627563	4506.179199	2358.620117	32.900345
265.635071	1308.053589	4405.610840	2313.187988	32.449261
266.007599	1311.802856	4310.224609	2278.782959	32.249634
266.380127	1312.133545	4240.201660	2242.613770	31.777956
266.752594	1315.882935	4205.575684	2221.220947	31.329905
267.125031	1315.000732	4197.084473	2211.627197	31.110353
267.497437	1313.236328	4212.963867	2214.604736	31.084589
267.869843	1316.544556	4239.098633	2217.141113	30.815393
268.242218	1313.567261	4277.473633	2221.221191	30.623571
268.614532	1311.913208	4335.697754	2240.739502	30.717342
268.986816	1312.354126	4430.973633	2265.991699	30.578836
269.359100	1311.471924	4539.150879	2296.757568	30.526134
269.731354	1310.038452	4652.510742	2322.230469	30.282736
270.103516	1311.030762	4749.219727	2349.798584	30.212645
270.475708	1311.361572	4830.049805	2375.491943	30.242247
270.847839	1314.890381	4902.499023	2401.847168	30.297529
271.219971	1318.419067	4961.053711	2423.901611	30.348433
271.592041	1320.403809	5006.596191	2434.929199	30.235140
271.964081	1321.065552	5036.369629	2444.191895	30.229727
272.336151	1316.434204	5064.048340	2449.154297	30.225098
272.708130	1316.654785	5090.182129	2448.933838	30.005852
273.080109	1313.015869	5107.385254	2448.161865	29.916592
273.452026	1311.582275	5141.238770	2455.880859	29.879927
273.823914	1310.369263	5176.085449	2462.497314	29.803740
274.195770	1310.369263	5215.893555	2474.847656	29.816185
274.567627	1309.376831	5261.987793	2481.353516	29.650698
274.939423	1310.700073	5304.332031	2489.955078	29.528385
275.311249	1312.243896	5345.464355	2501.864502	29.495552
275.682983	1310.479492	5376.120117	2514.435547	29.612947
276.054688	1309.707520	5401.151855	2520.280029	29.587902
276.426422	1307.943115	5403.577148	2512.009521	29.398779
276.798065	1312.243896	5370.495117	2498.446045	29.229391
277.169708	1313.236206	5325.172852	2483.228516	29.162783
277.541321	1317.757446	5277.536133	2472.642090	29.165382
277.912903	1316.985352	5267.832031	2465.033447	29.058281
278.284424	1316.764893	5279.741211	2463.489502	28.935944
278.655945	1315.882813	5301.685547	2467.348877	28.889189
279.027435	1312.574707	5332.010254	2473.193604	28.875172
279.398865	1310.920532	5391.226563	2490.065186	28.898436
279.770294	1307.502075	5467.424805	2514.435547	29.013361
280.141663	1310.810303	5539.763672	2543.657715	29.152544
280.513031	1313.015869	5615.631348	2573.210693	29.289043
280.884369	1315.993164	5680.912598	2600.227539	29.421721
281.255676	1314.559570	5725.462402	2618.091797	29.552504
281.626953	1313.787720	5763.727051	2632.868408	29.642666
281.998199	1316.654907	5805.189453	2649.078613	29.685049
282.369385	1313.346680	5856.245605	2667.052979	29.798292
282.740540	1313.236328	5915.572754	2690.982178	29.935791
283.111694	1311.802856	5983.280273	2713.808594	30.012041
283.482819	1310.479492	6070.064941	2737.958252	29.991661
283.853912	1314.559570	6165.339844	2772.694092	30.059793
284.224945	1315.441772	6257.858398	2816.251953	30.365919
284.595978	1313.346436	6348.502930	2857.383545	30.665129
284.966980	1311.030762	6425.914551	2894.104248	30.950331
285.337952	1309.817749	6500.238281	2926.083252	31.139395
285.708893	1306.730103	6535.746094	2952.438232	31.472616
286.079803	1305.406860	6558.352051	2976.588135	31.814177
286.450684	1304.745239	6574.893066	2996.988770	32.109982
286.821533	1307.391846	6588.677246	3025.549072	32.532940
287.192322	1306.399414	6596.506836	3048.927002	32.939362
287.563110	1307.391968	6602.571289	3059.623535	33.091072
287.933868	1303.642700	6627.272461	3092.705078	33.606064
288.304596	1299.672852	6668.735352	3125.456055	34.005623
288.675262	1300.885742	6725.304199	3169.013672	34.439228
289.045929	1301.326782	6777.683594	3214.556152	34.936169
289.416565	1300.113770	6826.645020	3255.136475	35.375221
289.787170	1296.805664	6843.957520	3286.564453	35.869919
290.157745	1293.718018	6845.170898	3324.387939	36.579071
290.528259	1293.497437	6840.870605	3356.256592	37.184433
290.898773	1294.820801	6830.614746	3385.919678	37.774147
291.269226	1294.269287	6813.852539	3414.921875	38.420521
291.639679	1290.630371	6797.202148	3447.782715	39.174145
292.010101	1294.820801	6810.876465	3482.077637	39.652554
292.380463	1293.828369	6840.539551	3522.878418	40.186878
292.750824	1298.680298	6882.332031	3576.029785	40.786026
293.121155	1300.775391	6928.756836	3628.520020	41.360203
293.491455	1307.502197	6990.068359	3689.721436	41.921539
293.861725	1310.920532	7072.000977	3747.282715	42.290024
294.231964	1313.125977	7184.479004	3811.461670	42.551277
294.602142	1314.669678	7298.721680	3877.625000	42.829765
294.972321	1314.669800	7398.077148	3944.891357	43.235996
295.342468	1316.213623	7496.991699	4018.332520	43.718102
295.712555	1317.095825	7559.295410	4065.198242	44.024586
296.082672	1318.419067	7583.776855	4108.866211	44.537716
296.452728	1315.882813	7585.761719	4127.392090	44.841526
296.822693	1319.080688	7589.400879	4145.367188	45.074039
297.192657	1321.065552	7589.180664	4159.592285	45.285175
297.562622	1322.388916	7606.824219	4179.993164	45.471138
297.932556	1326.027954	7627.886230	4194.438965	45.516911
298.302460	1328.233398	7634.833496	4199.952148	45.535133
298.672333	1327.792358	7640.347656	4210.868652	45.672096
299.042145	1329.005127	7636.597656	4218.256836	45.805931
299.411957	1330.218140	7623.033691	4218.477539	45.897728
299.781677	1326.027954	7584.768555	4208.442383	46.054226
300.151428	1326.579224	7523.125977	4188.372559	46.183681
300.521149	1326.248291	7458.727051	4157.827637	46.173489
300.890839	1322.829956	7386.829590	4124.304688	46.198463
301.260468	1317.095825	7310.961914	4086.040283	46.196301
301.630096	1318.418945	7223.515625	4050.091553	46.259575
301.999695	1319.080688	7102.436523	4008.298096	46.499252
302.369232	1316.323975	6976.063965	3956.800537	46.653671
302.738739	1314.449219	6859.727051	3900.231445	46.630344
303.108246	1310.699951	6722.106445	3839.912109	46.738537
303.477692	1311.251343	6610.841309	3781.577637	46.613537
303.847137	1311.361816	6522.182129	3729.309082	46.402431
304.216553	1311.361572	6456.680176	3693.469971	46.296619
304.585876	1310.369141	6397.794434	3663.696045	46.257721
304.955231	1309.597046	6350.267090	3639.215820	46.216450
305.324493	1306.619751	6311.010254	3617.492188	46.176903
305.693787	1306.178711	6280.244629	3602.495117	46.165783
306.063049	1306.509521	6274.399414	3600.951660	46.185448
306.432251	1307.391846	6272.414551	3602.936279	46.234322
306.801422	1305.627319	6267.783691	3599.738037	46.232136
307.170593	1304.524658	6268.334961	3607.347168	46.392231
307.539673	1303.642456	6275.171875	3611.758301	46.426674
307.908783	1304.304077	6290.831055	3621.572998	46.470600
308.277832	1302.650146	6307.150879	3631.056152	46.526237
308.646851	1300.444702	6338.357910	3649.581787	46.629173
309.015839	1303.973389	6378.717773	3665.901855	46.542809
309.384796	1298.239258	6410.586914	3683.435547	46.655598
309.753723	1295.151733	6446.205566	3696.557617	46.619701
310.122620	1294.600220	6472.339844	3710.562012	46.660553
310.491486	1296.144165	6484.690430	3722.251221	46.758896
310.860352	1299.342041	6501.231445	3731.844971	46.761909
311.229126	1299.452148	6515.456055	3735.373535	46.700912
311.597931	1298.680298	6523.726074	3746.841797	46.854355
311.966675	1300.224121	6544.016602	3757.869385	46.867706
312.335388	1300.665161	6579.523926	3774.300293	46.859280
312.704071	1298.680298	6617.236816	3799.993652	47.029930
313.072723	1301.326904	6632.564941	3813.336670	47.118690
313.441345	1301.988525	6630.139160	3819.291016	47.245335
313.809875	1302.650146	6611.061523	3809.586670	47.225742
314.178436	1298.459839	6573.018066	3792.273926	47.280056
314.546967	1304.193970	6535.194824	3776.725830	47.266895
314.915466	1304.635132	6494.283691	3744.856689	47.020943
315.283936	1308.604858	6440.911621	3720.486572	46.994110
315.652374	1309.266602	6398.125977	3697.439453	46.929432
316.020752	1307.943237	6345.084961	3673.068848	46.953724
316.389130	1313.236328	6299.542480	3646.052734	46.784458
