Jaz Data File
++++++++++++++++++++++++++++++++++++
Date: Thu Sep 26 04:32:39 2019
User: jaz
Dark Spectrum Present: Yes
Reference Spectrum Present: Yes
Processed Spectrum Present: Yes
Spectrometers: JAZA3541
Integration Time (usec): 100000 (JAZA3541)
Spectra Averaged: 1 (JAZA3541)
Boxcar Smoothing: 10 (JAZA3541)
Correct for Electrical Dark: No (JAZA3541)
Strobe/Lamp Enabled: Yes (JAZA3541)
Correct for Detector Non-linearity: No (JAZA3541)
Correct for Stray Light: No (JAZA3541)
Number of Pixels in Processed Spectrum: 2048
>>>>>Begin Processed Spectral Data<<<<<
W	D	R	S	P
190.543274	0.000000	0.000000	0.000000	0.000000
190.921555	0.000000	0.000000	0.000000	0.000000
191.299805	1296.805664	1336.172974	1088.390503	-529.411743
191.678024	1229.649658	1322.278564	1118.494873	-120.000107
192.056229	1345.435913	1313.015747	1185.650879	492.856934
192.434387	1331.541504	1278.279907	1123.126343	391.304749
192.812531	1303.752808	1324.594360	1143.967896	-766.665100
193.190659	1310.699951	1296.805664	1169.440796	1016.670776
193.568741	1319.962891	1359.330200	1185.650879	-341.176514
193.946793	0.000000	0.000000	0.000000	0.000000
194.324829	1207.815674	1211.785522	1063.578979	-3633.304688
194.702835	1271.994385	1273.317627	1118.494751	-11600.267578
195.080811	1337.606445	1335.070313	1176.498047	6352.521973
195.458755	1337.827148	1332.203125	1179.806396	2809.745605
195.836685	1338.268188	1331.541626	1180.688477	2342.648438
196.214569	1339.811890	1336.172974	1179.034424	4418.279297
196.592422	1341.907104	1340.032471	1185.320068	8352.940430
196.970261	1342.679077	1342.127686	1187.745972	28098.560547
197.348068	1343.781860	1343.120117	1187.856201	23562.867188
197.725861	1344.222900	1342.127563	1187.525513	7478.386230
198.103622	1343.561279	1338.157837	1184.107056	2950.974854
198.481323	1340.253052	1337.496216	1181.460449	5759.958496
198.859039	1337.937378	1335.290771	1187.415161	5687.366699
199.236694	1335.070313	1335.621460	1187.745972	-26730.476563
199.614334	1333.416138	1335.511230	1191.385010	-6779.228516
199.991959	1329.115479	1337.937134	1189.069214	-1587.528198
200.369553	1324.373657	1337.826904	1190.282227	-996.721680
200.747101	1322.499023	1341.355835	1192.818604	-687.711304
201.124619	1320.514038	1341.576294	1197.008911	-586.381287
201.502136	1316.323608	1346.538452	1195.575317	-399.632355
201.879623	1313.677246	1349.736450	1195.906006	-326.605225
202.257065	1311.030640	1351.500854	1200.647827	-272.750732
202.634476	1309.927979	1352.934570	1204.617798	-244.869858
203.011871	1305.186279	1354.809082	1205.058838	-201.777084
203.389221	1303.091064	1361.866455	1206.382080	-164.539932
203.766571	1304.745117	1367.931519	1209.579956	-150.610199
204.143875	1300.334229	1365.064331	1210.572388	-138.670944
204.521164	1296.254272	1365.284912	1207.815430	-128.115341
204.898392	1297.798096	1363.300049	1205.830688	-140.404068
205.275620	1298.459717	1368.703369	1205.720459	-132.025101
205.652817	1293.718018	1368.482910	1204.066162	-119.911705
206.029984	1293.607666	1372.673218	1205.058838	-111.994194
206.407135	1291.953613	1374.988892	1212.116211	-96.148773
206.784225	1292.394775	1374.437378	1209.690430	-100.806587
207.161301	1293.607910	1372.893555	1206.713135	-109.597107
207.538376	1298.570190	1373.555176	1202.963867	-127.500626
207.915405	1302.209229	1370.798462	1201.530151	-146.785538
208.292404	1303.422119	1370.798584	1199.986328	-153.519165
208.669373	1305.406860	1366.718506	1195.575317	-179.136505
209.046310	1302.319336	1363.961670	1193.700684	-176.207886
209.423218	1303.863159	1361.645874	1192.818604	-192.176086
209.800095	1305.737793	1357.124756	1192.928955	-219.528122
210.176956	1308.715210	1353.265137	1195.354858	-254.456879
210.553787	1308.163818	1355.911743	1192.267212	-242.725952
210.930603	1309.597412	1356.242554	1187.194702	-262.412567
211.307358	1315.221313	1353.485718	1187.746094	-333.143097
211.684113	1317.316406	1349.846680	1186.753662	-401.357666
212.060837	1316.985596	1348.413086	1190.833740	-401.406067
212.437531	1316.765015	1350.839233	1189.289795	-374.110474
212.814178	1314.008179	1354.037109	1189.289795	-311.570618
213.190826	1312.574585	1351.280273	1188.187012	-321.367676
213.567413	1313.125977	1352.383057	1191.164551	-310.673706
213.943985	1310.258789	1357.345337	1192.928711	-249.179611
214.320541	1309.266479	1357.124756	1188.958862	-251.383102
214.697052	1307.612305	1361.315186	1186.753418	-225.051025
215.073563	1309.266357	1363.300049	1186.863892	-226.529892
215.449997	1303.863159	1360.874023	1185.761108	-207.157089
215.826431	1301.326904	1362.086914	1184.658447	-192.015198
216.202850	1300.334351	1364.954102	1186.863892	-175.597183
216.579224	1298.459717	1369.695923	1187.084351	-156.346573
216.955582	1300.885742	1374.989014	1186.643311	-154.166519
217.331894	1300.554932	1374.217041	1186.422729	-154.940170
217.708191	1300.003418	1376.863647	1182.783813	-152.510086
218.084442	1300.113770	1383.480103	1181.239868	-142.592209
218.460678	1296.915771	1384.141602	1187.635742	-125.284027
218.836899	1295.041260	1385.685303	1190.943970	-114.841843
219.213074	1292.615234	1387.339478	1189.841187	-108.498146
219.589233	1294.269287	1392.191650	1187.966553	-108.558182
219.965347	1296.805542	1398.697510	1188.518066	-106.276756
220.341431	1295.592529	1399.359131	1187.746216	-103.931625
220.717499	1296.254150	1400.241455	1191.054443	-101.165916
221.093552	1295.041260	1402.336548	1191.054443	-96.916481
221.469543	1299.011108	1407.078247	1191.936523	-99.081543
221.845535	1302.980835	1407.409058	1192.928955	-105.385193
222.221466	1305.296631	1411.709595	1193.590454	-104.974220
222.597397	1305.186279	1417.884766	1194.252197	-98.434402
222.973297	1302.760376	1426.706543	1196.126709	-86.032242
223.349167	1300.554932	1437.403076	1198.773193	-74.375679
223.725006	1297.467285	1446.996826	1201.309448	-64.306915
224.100800	1295.041260	1454.385010	1202.853271	-57.854786
224.476578	1295.372070	1465.081543	1206.051147	-52.631664
224.852325	1297.577515	1475.778076	1208.146362	-50.185673
225.228058	1298.680298	1495.847778	1211.895752	-44.015648
225.603760	1297.577637	1523.195313	1219.614624	-34.555367
225.979416	1295.261963	1552.086792	1223.474243	-27.952017
226.355057	1295.372192	1590.351318	1224.907959	-23.887871
226.730652	1296.805664	1642.069214	1236.045532	-17.598188
227.106232	1296.915894	1691.912231	1248.065186	-12.367382
227.481796	1294.159180	1736.903687	1261.849243	-7.297648
227.857315	1292.946167	1778.145630	1265.819092	-5.590912
228.232788	1296.033813	1815.638184	1273.538086	-4.329395
228.608246	1296.695435	1848.058350	1278.500488	-3.299994
228.983704	1297.026245	1883.345459	1286.550171	-1.786753
229.359100	1297.577637	1916.206665	1286.219360	-1.836040
229.734482	1293.166748	1945.870117	1293.607666	0.067553
230.109833	1290.189453	1973.768921	1298.349365	1.193704
230.485153	1290.189331	1989.979126	1303.422119	1.890966
230.860443	1289.527710	2012.585205	1305.517212	2.211374
231.235703	1293.166748	2031.331421	1310.479492	2.345377
231.610931	1293.607788	2055.481445	1316.985596	3.068463
231.986145	1293.056396	2079.300049	1321.396484	3.604492
232.361313	1290.189209	2098.708252	1328.674438	4.759966
232.736465	1287.983765	2121.313965	1334.959961	5.637165
233.111572	1285.888550	2134.656982	1336.944824	6.015336
233.486664	1288.865845	2141.052734	1342.679077	6.314722
233.861725	1290.409668	2141.604248	1345.546143	6.477540
234.236755	1292.284302	2138.957520	1348.082397	6.590275
234.611771	1296.474731	2120.873047	1347.420654	6.179770
234.986740	1298.900635	2101.023926	1345.987183	5.870238
235.361679	1299.782959	2083.710938	1347.089844	6.034596
235.736588	1298.570068	2073.235107	1348.523193	6.448351
236.111496	1297.908447	2069.375488	1353.595825	7.218374
236.486343	1298.459717	2071.139893	1359.329956	7.877805
236.861160	1301.106323	2071.250000	1364.182129	8.190135
237.235962	1300.334351	2079.961426	1374.217041	9.476670
237.610733	1302.760376	2089.996338	1377.635376	9.511126
237.985474	1301.437134	2106.978271	1388.221680	10.773447
238.360199	1300.665283	2140.501221	1402.336548	12.106087
238.734879	1301.767944	2177.662842	1419.318604	13.420635
239.109543	1300.334473	2227.616455	1439.498413	15.007726
239.484177	1304.635132	2281.650146	1463.207031	16.230242
239.858749	1310.810303	2350.680908	1492.760132	17.497353
240.233322	1311.361694	2434.047119	1527.716553	19.271191
240.607864	1313.126099	2511.899414	1562.121704	20.770866
240.982391	1314.559570	2592.618896	1597.959961	22.174274
241.356857	1316.213745	2651.063232	1623.433228	23.015289
241.731308	1315.000610	2704.435059	1646.039063	23.825409
242.105728	1317.977905	2744.684814	1665.005981	24.323711
242.480118	1312.354126	2785.926758	1685.626831	25.331137
242.854492	1310.479492	2835.880127	1708.012085	26.060865
243.228836	1309.045898	2893.442383	1733.264526	26.774776
243.603134	1312.905518	2957.290283	1761.604492	27.286739
243.977402	1312.023193	3046.721436	1803.067383	28.307182
244.351654	1310.920532	3168.241699	1856.659546	29.383125
244.725861	1310.810303	3315.235107	1917.970947	30.291016
245.100067	1311.912964	3466.970215	1985.237305	31.243921
245.474213	1311.361694	3603.377197	2052.834473	32.350250
245.848343	1316.985474	3710.341553	2103.780273	32.874123
246.222443	1318.198486	3794.700195	2148.220215	33.515896
246.596512	1318.419067	3855.019287	2184.830811	34.156418
246.970566	1321.286133	3892.181641	2207.767578	34.481426
247.344574	1320.845093	3904.862793	2219.015137	34.758667
247.718567	1317.206055	3891.740234	2222.102783	35.147980
248.092529	1318.749756	3859.430420	2217.140869	35.360252
248.466431	1315.441650	3833.075195	2212.398926	35.626999
248.840332	1313.236206	3807.051025	2206.113525	35.803673
249.214203	1311.030640	3809.476563	2211.186035	36.028614
249.588043	1313.787598	3825.797363	2224.087891	36.237926
249.961838	1310.038330	3853.696045	2241.731689	36.628094
250.335617	1313.677124	3886.888428	2260.257324	36.785946
250.709381	1313.456665	3901.664795	2270.622803	36.981808
251.083084	1318.198608	3899.569824	2273.820801	37.019947
251.456787	1314.780029	3882.367188	2272.056152	37.283100
251.830460	1316.434204	3829.656738	2258.492920	37.484093
252.204071	1313.456787	3746.069824	2228.057861	37.597473
252.577667	1310.038452	3638.995117	2190.564941	37.807770
252.951248	1310.369263	3513.615234	2144.360596	37.852844
253.324799	1308.604858	3406.099365	2096.171631	37.547977
253.698303	1305.737671	3326.152100	2065.184814	37.588680
254.071793	1305.296631	3267.817627	2040.373657	37.455753
254.445236	1304.083618	3233.853760	2025.707397	37.394287
254.818665	1300.113770	3219.959473	2015.010986	37.237221
255.192062	1300.003418	3219.077393	2015.783081	37.298180
255.565430	1300.444458	3243.888672	2026.479492	37.358162
255.938782	1301.878052	3283.365967	2038.609131	37.180698
256.312103	1304.745117	3340.266846	2057.355713	36.973843
256.685364	1306.730225	3419.442383	2086.687988	36.917370
257.058594	1304.965820	3518.357178	2125.945068	37.091465
257.431793	1302.098633	3646.714600	2175.567871	37.254257
257.804993	1302.760254	3790.178955	2232.248047	37.367565
258.178162	1299.672729	3928.240234	2286.612549	37.546680
258.551270	1298.128906	4052.517578	2335.353027	37.657143
258.924377	1294.379639	4145.587402	2372.184326	37.801689
259.297485	1293.938599	4222.999023	2399.862793	37.756958
259.670502	1293.056396	4286.625977	2424.563721	37.797928
260.043518	1295.151489	4346.063477	2446.508301	37.738117
260.416473	1298.569946	4394.473145	2460.512207	37.531609
260.789459	1297.026123	4449.830078	2476.832764	37.420868
261.162354	1297.246704	4497.467773	2494.365967	37.407391
261.535278	1298.349365	4541.796875	2506.385498	37.245434
261.908142	1298.790527	4576.092285	2517.192627	37.176987
262.280975	1301.216553	4595.279297	2519.397461	36.981110
262.653717	1302.870605	4609.834961	2525.793457	36.980225
263.026520	1300.113892	4627.809570	2530.976318	36.988430
263.399261	1297.357056	4643.688477	2533.402344	36.937325
263.771973	1296.915894	4654.495605	2536.269531	36.912113
264.144653	1298.239258	4653.502930	2535.056641	36.862003
264.517334	1301.106323	4633.103027	2528.550293	36.838093
264.889954	1302.208862	4586.678223	2508.039795	36.713116
265.262543	1305.627563	4506.179199	2474.076172	36.507725
265.635071	1308.053589	4405.610840	2430.739014	36.244221
266.007599	1311.802856	4310.224609	2388.504395	35.908939
266.380127	1312.133545	4240.201660	2353.106934	35.551544
266.752594	1315.882935	4205.575684	2328.516113	35.042934
267.125031	1315.000732	4197.084473	2322.340820	34.951797
267.497437	1313.236328	4212.963867	2315.393799	34.560402
267.869843	1316.544556	4239.098633	2313.519043	34.113121
268.242218	1313.567261	4277.473633	2326.420898	34.172932
268.614532	1311.913208	4335.697754	2348.364990	34.276638
268.986816	1312.354126	4430.973633	2375.933105	34.104160
269.359100	1311.471924	4539.150879	2416.513428	34.236412
269.731354	1310.038452	4652.510742	2453.895752	34.221893
270.103516	1311.030762	4749.219727	2491.608887	34.337208
270.475708	1311.361572	4830.049805	2518.846436	34.316334
270.847839	1314.890381	4902.499023	2536.710449	34.056671
271.219971	1318.419067	4961.053711	2546.194092	33.705685
271.592041	1320.403809	5006.596191	2558.213867	33.579639
271.964081	1321.065552	5036.369629	2564.389160	33.464920
272.336151	1316.434204	5064.048340	2566.925537	33.367664
272.708130	1316.654785	5090.182129	2567.145752	33.138515
273.080109	1313.015869	5107.385254	2566.925293	33.046581
273.452026	1311.582275	5141.238770	2570.123291	32.863026
273.823914	1310.369263	5176.085449	2572.770020	32.656322
274.195770	1310.369263	5215.893555	2583.025391	32.586048
274.567627	1309.376831	5261.987793	2596.257813	32.557747
274.939423	1310.700073	5304.332031	2607.064697	32.460796
275.311249	1312.243896	5345.464355	2620.297607	32.431992
275.682983	1310.479492	5376.120117	2633.199219	32.534103
276.054688	1309.707520	5401.151855	2634.853271	32.388214
276.426422	1307.943115	5403.577148	2628.898682	32.252773
276.798065	1312.243896	5370.495117	2617.099609	32.153152
277.169708	1313.236206	5325.172852	2593.390869	31.908648
277.541321	1317.757446	5277.536133	2574.423828	31.735773
277.912903	1316.985352	5267.832031	2565.712646	31.606575
278.284424	1316.764893	5279.741211	2566.153564	31.526524
278.655945	1315.882813	5301.685547	2581.371338	31.749903
279.027435	1312.574707	5332.010254	2600.889404	32.052132
279.398865	1310.920532	5391.226563	2621.620605	32.122593
279.770294	1307.502075	5467.424805	2648.637695	32.239433
280.141663	1310.810303	5539.763672	2681.388672	32.409401
280.513031	1313.015869	5615.631348	2714.911377	32.582405
280.884369	1315.993164	5680.912598	2741.707520	32.663017
281.255676	1314.559570	5725.462402	2765.416016	32.892506
281.626953	1313.787720	5763.727051	2779.530762	32.938496
281.998199	1316.654907	5805.189453	2799.490234	33.036068
282.369385	1313.346680	5856.245605	2821.544678	33.199020
282.740540	1313.236328	5915.572754	2840.952637	33.194363
283.111694	1311.802856	5983.280273	2865.212891	33.253078
283.482819	1310.479492	6070.064941	2897.302002	33.339512
283.853912	1314.559570	6165.339844	2944.057617	33.592495
284.224945	1315.441772	6257.858398	2985.520264	33.790726
284.595978	1313.346436	6348.502930	3028.857422	34.070660
284.966980	1311.030762	6425.914551	3068.445068	34.358833
285.337952	1309.817749	6500.238281	3100.534180	34.500412
285.708893	1306.730103	6535.746094	3126.558350	34.802498
286.079803	1305.406860	6558.352051	3153.906250	35.189770
286.450684	1304.745239	6574.893066	3164.051270	35.279961
286.821533	1307.391846	6588.677246	3183.128418	35.516670
287.192322	1306.399414	6596.506836	3203.197998	35.855579
287.563110	1307.391968	6602.571289	3225.142090	36.216908
287.933868	1303.642700	6627.272461	3256.349365	36.679985
288.304596	1299.672852	6668.735352	3288.659180	37.045319
288.675262	1300.885742	6725.304199	3335.193848	37.502789
289.045929	1301.326782	6777.683594	3381.067627	37.976719
289.416565	1300.113770	6826.645020	3429.367188	38.527847
289.787170	1296.805664	6843.957520	3470.829590	39.191715
290.157745	1293.718018	6845.170898	3502.588623	39.789051
290.528259	1293.497437	6840.870605	3540.742676	40.510078
290.898773	1294.820801	6830.614746	3567.869141	41.060928
291.269226	1294.269287	6813.852539	3594.224609	41.669006
291.639679	1290.630371	6797.202148	3614.073975	42.194012
292.010101	1294.820801	6810.876465	3654.323242	42.775173
292.380463	1293.828369	6840.539551	3696.116699	43.310143
292.750824	1298.680298	6882.332031	3744.747070	43.807655
293.121155	1300.775391	6928.756836	3801.868408	44.440319
293.491455	1307.502197	6990.068359	3862.297363	44.958473
293.861725	1310.920532	7072.000977	3921.955078	45.321960
294.231964	1313.125977	7184.479004	3996.168213	45.697170
294.602142	1314.669678	7298.721680	4074.792725	46.124653
294.972321	1314.669800	7398.077148	4143.381836	46.498810
295.342468	1316.213623	7496.991699	4209.545898	46.811779
295.712555	1317.095825	7559.295410	4259.499023	47.137283
296.082672	1318.419067	7583.776855	4299.638184	47.582584
296.452728	1315.882813	7585.761719	4320.039551	47.914112
296.822693	1319.080688	7589.400879	4337.682617	48.141113
297.192657	1321.065552	7589.180664	4355.657227	48.413147
297.562622	1322.388916	7606.824219	4369.220703	48.482185
297.932556	1326.027954	7627.886230	4388.738770	48.600124
298.302460	1328.233398	7634.833496	4395.134766	48.630028
298.672333	1327.792358	7640.347656	4414.432129	48.896835
299.042145	1329.005127	7636.597656	4428.215820	49.134602
299.411957	1330.218140	7623.033691	4435.604004	49.348114
299.781677	1326.027954	7584.768555	4423.363770	49.488167
300.151428	1326.579224	7523.125977	4406.051270	49.696587
300.521149	1326.248291	7458.727051	4382.122070	49.830975
300.890839	1322.829956	7386.829590	4344.408691	49.828148
301.260468	1317.095825	7310.961914	4301.291992	49.787502
301.630096	1318.418945	7223.515625	4262.255859	49.852478
301.999695	1319.080688	7102.436523	4215.279785	50.078178
302.369232	1316.323975	6976.063965	4152.865723	50.117878
302.738739	1314.449219	6859.727051	4093.759766	50.120312
303.108246	1310.699951	6722.106445	4036.307617	50.367825
303.477692	1311.251343	6610.841309	3976.650635	50.294449
303.847137	1311.361816	6522.182129	3931.548828	50.283581
304.216553	1311.361572	6456.680176	3904.201172	50.392208
304.585876	1310.369141	6397.794434	3873.545410	50.382584
304.955231	1309.597046	6350.267090	3853.254883	50.462692
305.324493	1306.619751	6311.010254	3836.383301	50.550884
305.693787	1306.178711	6280.244629	3820.283447	50.544258
306.063049	1306.509521	6274.399414	3821.386230	50.622635
306.432251	1307.391846	6272.414551	3821.717285	50.640766
306.801422	1305.627319	6267.783691	3815.210938	50.574455
307.170593	1304.524658	6268.334961	3815.211426	50.579826
307.539673	1303.642456	6275.171875	3816.534668	50.545654
307.908783	1304.304077	6290.831055	3820.283447	50.455547
308.277832	1302.650146	6307.150879	3831.751953	50.536545
308.646851	1300.444702	6338.357910	3852.262695	50.652279
309.015839	1303.973389	6378.717773	3872.994141	50.623650
309.384796	1298.239258	6410.586914	3886.447510	50.626610
309.753723	1295.151733	6446.205566	3905.414551	50.674343
310.122620	1294.600220	6472.339844	3921.183350	50.728371
310.491486	1296.144165	6484.690430	3928.019775	50.724716
310.860352	1299.342041	6501.231445	3934.194824	50.651840
311.229126	1299.452148	6515.456055	3941.583252	50.654316
311.597931	1298.680298	6523.726074	3943.458008	50.617313
311.966675	1300.224121	6544.016602	3948.420410	50.501545
312.335388	1300.665161	6579.523926	3963.858643	50.450172
312.704071	1298.680298	6617.236816	3979.296387	50.401196
313.072723	1301.326904	6632.564941	3985.471680	50.347492
313.441345	1301.988525	6630.139160	3987.677002	50.405643
313.809875	1302.650146	6611.061523	3972.128662	50.287712
314.178436	1298.459839	6573.018066	3945.552734	50.186058
314.546967	1304.193970	6535.194824	3919.969482	50.005257
314.915466	1304.635132	6494.283691	3892.511963	49.866131
315.283936	1308.604858	6440.911621	3868.472412	49.877529
315.652374	1309.266602	6398.125977	3846.969482	49.867813
316.020752	1307.943237	6345.084961	3812.454346	49.720882
316.389130	1313.236328	6299.542480	3789.406982	49.659420
