Jaz Data File
++++++++++++++++++++++++++++++++++++
Date: Fri Jun 21 02:23:21 2019
User: jaz
Dark Spectrum Present: Yes
Reference Spectrum Present: Yes
Processed Spectrum Present: Yes
Spectrometers: JAZA3541
Integration Time (usec): 119000 (JAZA3541)
Spectra Averaged: 1 (JAZA3541)
Boxcar Smoothing: 10 (JAZA3541)
Correct for Electrical Dark: No (JAZA3541)
Strobe/Lamp Enabled: Yes (JAZA3541)
Correct for Detector Non-linearity: No (JAZA3541)
Correct for Stray Light: No (JAZA3541)
Number of Pixels in Processed Spectrum: 2048
>>>>>Begin Processed Spectral Data<<<<<
W	D	R	S	P
190.543274	0.000000	0.000000	0.000000	0.000000
190.921555	0.000000	0.000000	0.000000	0.000000
191.299805	1558.482544	1405.644653	1630.270020	-46.969685
191.678024	1533.009521	1440.380615	1614.059937	-87.500130
192.056229	1539.956665	1535.325317	1586.271240	-1000.023743
192.434387	1519.115234	1551.535278	1618.691284	307.143463
192.812531	1604.796997	1597.849854	1651.111450	-666.669006
193.190659	1556.166748	1542.272461	1653.427246	-700.003540
193.568741	1623.322754	1530.693848	1600.165527	25.000000
193.946793	0.000000	0.000000	0.000000	0.000000
194.324829	1410.165894	1403.770142	1484.489868	-1162.083496
194.702835	1483.938232	1477.322021	1558.813599	-1131.695557
195.080811	1555.725708	1551.645752	1636.004517	-1967.639038
195.458755	1552.307251	1560.467407	1635.232544	1016.221863
195.836685	1553.520386	1565.540039	1636.445557	689.913147
196.214569	1554.953857	1568.627808	1637.768555	605.638428
196.592422	1551.425171	1571.164063	1638.430420	440.780823
196.970261	1549.219727	1570.833130	1637.768799	409.695190
197.348068	1548.999146	1571.274170	1632.806396	376.238647
197.725861	1545.690796	1573.810425	1636.334961	322.351929
198.103622	1539.625854	1573.589844	1632.585693	273.701172
198.481323	1540.287598	1569.399536	1627.403076	299.243134
198.859039	1539.846436	1568.958374	1625.528320	294.318726
199.236694	1536.758789	1568.296631	1629.056885	292.658264
199.614334	1539.295166	1566.201660	1627.513062	327.868408
199.991959	1540.728760	1571.604858	1625.528320	274.644684
200.369553	1537.751465	1570.502075	1621.889160	256.904205
200.747101	1536.759033	1571.935669	1620.676147	238.559235
201.124619	1535.215210	1570.502197	1618.140015	235.001083
201.502136	1531.796631	1571.274048	1611.082397	200.838287
201.879623	1529.922119	1568.517334	1612.405640	213.714371
202.257065	1525.621216	1569.730225	1610.531006	192.499878
202.634476	1525.621216	1573.589600	1610.972290	177.931931
203.011871	1524.187744	1573.258911	1612.075195	179.102020
203.389221	1524.408203	1571.715088	1610.420898	181.818558
203.766571	1523.415649	1570.722656	1609.318237	181.585342
204.143875	1523.305542	1567.635010	1609.538696	194.527832
204.521164	1526.613770	1564.878296	1606.892090	209.798279
204.898392	1524.408203	1563.444702	1604.796875	205.932068
205.275620	1523.856812	1563.665405	1612.074951	221.605774
205.652817	1524.297852	1562.783081	1607.884521	217.191559
206.029984	1529.370483	1566.422241	1610.310669	218.451675
206.407135	1528.378052	1568.848267	1611.964600	206.538437
206.784225	1530.473389	1569.950928	1612.515991	207.820969
207.161301	1530.252808	1570.281616	1611.302979	202.479599
207.538376	1528.929443	1571.274170	1613.398193	199.478790
207.915405	1529.260376	1568.517456	1610.310669	206.460327
208.292404	1529.480835	1568.737671	1609.318237	203.371979
208.669373	1525.952148	1570.833008	1610.972290	189.435196
209.046310	1524.628784	1571.053589	1611.302979	186.698029
209.423218	1528.267822	1569.509644	1612.074951	203.209091
209.800095	1530.032227	1570.612549	1614.611206	208.423630
210.176956	1530.032227	1570.833130	1620.014648	220.540268
210.553787	1531.686279	1566.201660	1625.748901	272.523773
210.930603	1535.435425	1566.091553	1626.520508	297.118683
211.307358	1536.648438	1565.760620	1626.741089	309.467194
211.684113	1538.412842	1570.391968	1626.630737	275.860870
212.060837	1534.773804	1573.920776	1626.630737	234.646332
212.437531	1533.340210	1574.802856	1630.049316	233.243927
212.814178	1532.458130	1578.772705	1630.049438	210.714035
213.190826	1532.788940	1580.426758	1626.520630	196.758987
213.567413	1530.914307	1580.095947	1628.064575	197.533600
213.943985	1528.267822	1576.015869	1631.703735	216.628571
214.320541	1528.488281	1577.669800	1633.578369	213.678009
214.697052	1527.716431	1577.228760	1633.137085	212.917984
215.073563	1529.591064	1581.198486	1630.270142	195.086426
215.449997	1529.921875	1582.852661	1628.946777	187.083755
215.826431	1528.708862	1588.586670	1630.931519	170.718765
216.202850	1529.370483	1590.792236	1634.019165	170.377228
216.579224	1533.119751	1588.807495	1631.703491	177.029510
216.955582	1533.560791	1588.586914	1632.254883	179.358612
217.331894	1531.135010	1586.932861	1634.239990	184.783066
217.708191	1532.017090	1588.035400	1630.380249	175.591080
218.084442	1537.420532	1591.674438	1626.851563	164.837952
218.460678	1534.443115	1598.180420	1621.889282	137.197784
218.836899	1532.678711	1603.694214	1625.638550	130.900772
219.213074	1532.127563	1606.892090	1628.285156	128.613922
219.589233	1531.024658	1605.348389	1631.483032	135.163254
219.965347	1533.891846	1609.869385	1634.129639	131.930817
220.341431	1535.987061	1615.713867	1630.821411	118.949142
220.717499	1535.435669	1614.721558	1633.578369	123.783310
221.093552	1534.002075	1619.242554	1632.255005	115.265579
221.469543	1535.104858	1625.197510	1633.026978	108.690460
221.845535	1536.207642	1630.380249	1631.924072	101.639359
222.221466	1537.310303	1634.350098	1630.490723	96.022896
222.597397	1535.435547	1642.069214	1633.688599	92.140739
222.973297	1537.420532	1647.362183	1636.114624	89.769524
223.349167	1536.979492	1655.853271	1639.643188	86.363617
223.725006	1537.530640	1662.359375	1638.540527	80.918777
224.100800	1538.082153	1671.952881	1637.768433	74.464584
224.476578	1538.854004	1682.097900	1645.818237	74.672806
224.852325	1537.971680	1701.726563	1648.024048	67.205551
225.228058	1541.279907	1724.332397	1649.567505	59.156582
225.603760	1540.838867	1750.246460	1654.971191	54.502476
225.979416	1536.317749	1779.248169	1660.925537	51.293613
226.355057	1535.325195	1813.322388	1668.313965	47.838169
226.730652	1533.671143	1852.028076	1666.990723	41.877392
227.106232	1534.773926	1886.543335	1670.409180	38.558002
227.481796	1531.575928	1920.286865	1673.717285	36.567368
227.857315	1528.378052	1946.972900	1676.253662	35.326668
228.232788	1528.819214	1971.673950	1684.634277	35.184238
228.608246	1531.465698	1999.903687	1685.737183	32.933170
228.983704	1534.112305	2022.950684	1687.721924	31.423395
229.359100	1531.575928	2040.263428	1686.619385	30.479116
229.734482	1528.378052	2061.546143	1687.501465	29.844887
230.109833	1529.039795	2075.881592	1687.722046	29.017944
230.485153	1528.488403	2087.349609	1686.729492	28.314917
230.860443	1521.541260	2101.575195	1685.626831	28.288961
231.235703	1520.879517	2121.534668	1684.524048	27.244339
231.610931	1519.225464	2137.523926	1687.942749	27.287354
231.986145	1517.240479	2152.079834	1689.596680	27.149578
232.361313	1516.468506	2165.532959	1688.162964	26.452606
232.736465	1519.115112	2169.833984	1686.950195	25.792257
233.111572	1517.571289	2172.921387	1687.501465	25.929678
233.486664	1518.894653	2171.708252	1693.125366	26.689198
233.861725	1517.350586	2169.944092	1693.897339	27.053097
234.236755	1520.107422	2156.931885	1689.927490	26.666700
234.611771	1522.313110	2138.516357	1690.258179	27.254818
234.986740	1523.415771	2132.671875	1689.596558	27.276014
235.361679	1526.062256	2128.922607	1691.030273	27.364218
235.736588	1526.393188	2124.952881	1689.486450	27.247618
236.111496	1527.936890	2122.196045	1689.265869	27.147917
236.486343	1528.819092	2122.857666	1691.912354	27.454994
236.861160	1527.716309	2128.371582	1694.999756	27.850159
237.235962	1529.370483	2138.626465	1699.962280	28.000021
237.610733	1532.016968	2152.962158	1705.034790	27.863623
237.985474	1532.016968	2177.111572	1711.099731	27.760698
238.360199	1533.009521	2207.988037	1715.510376	27.038025
238.734879	1534.994385	2240.628662	1721.575562	26.441626
239.109543	1532.347900	2281.539551	1734.367188	26.964968
239.484177	1533.450562	2334.360352	1742.086182	26.049828
239.858749	1535.325195	2397.105469	1755.649780	25.566214
240.233322	1530.804199	2464.923096	1763.258545	24.884878
240.607864	1528.709106	2528.660889	1779.027710	25.033068
240.982391	1529.370728	2583.025391	1790.165405	24.751438
241.356857	1527.826904	2627.685547	1794.245483	24.222984
241.731308	1533.340454	2665.288574	1799.428223	23.507065
242.105728	1529.150024	2699.583252	1807.367554	23.770473
242.480118	1528.708984	2736.414307	1809.793701	23.274281
242.854492	1529.480957	2770.378418	1817.513062	23.211596
243.228836	1527.606323	2818.898193	1823.357544	22.903515
243.603134	1531.245361	2883.187256	1838.574829	22.732447
243.977402	1529.150146	2971.956787	1849.050537	22.172091
244.351654	1526.724121	3079.692871	1868.568970	22.012346
244.725861	1527.495972	3195.809814	1888.638794	21.647175
245.100067	1529.260376	3309.391113	1907.605713	21.253796
245.474213	1530.693970	3406.872070	1920.397095	20.771116
245.848343	1529.150146	3476.453857	1929.770264	20.573069
246.222443	1528.378174	3532.362061	1940.135742	20.546949
246.596512	1530.252808	3565.884766	1946.752075	20.460440
246.970566	1530.804077	3581.543457	1943.002808	20.100006
247.344574	1531.134888	3573.714355	1944.987671	20.261282
247.718567	1528.157471	3552.431641	1940.797485	20.384592
248.092529	1533.561035	3529.936035	1941.128296	20.415365
248.466431	1533.891724	3510.307617	1941.238647	20.610386
248.840332	1534.002197	3506.668945	1941.679932	20.666327
249.214203	1533.891846	3516.923828	1943.885376	20.675083
249.588043	1529.811768	3538.868408	1943.995483	20.615831
249.961838	1525.952148	3566.656982	1948.516724	20.706795
250.335617	1524.629028	3592.460938	1953.148071	20.723106
250.709381	1522.423584	3603.377930	1950.942505	20.592422
251.083084	1521.320801	3591.468262	1950.721924	20.742538
251.456787	1521.982422	3561.474365	1940.577026	20.524454
251.830460	1521.762085	3509.425293	1933.409424	20.710115
252.204071	1522.203125	3429.367188	1916.978760	20.699615
252.577667	1521.761963	3337.069092	1901.761353	20.933064
252.951248	1521.541260	3250.725830	1891.395630	21.388947
253.324799	1517.020142	3177.835449	1878.273193	21.751549
253.698303	1516.248169	3130.969482	1870.774536	21.955885
254.071793	1518.233032	3092.374268	1862.393799	21.863398
254.445236	1520.769287	3078.479736	1863.386108	21.994898
254.818665	1521.541260	3072.855957	1863.716919	22.057140
255.192062	1521.320801	3089.396729	1867.576416	22.081560
255.565430	1525.511108	3120.272949	1876.508423	22.009388
255.938782	1522.092651	3155.891113	1879.596191	21.881741
256.312103	1523.636475	3214.445801	1883.455688	21.280886
256.685364	1522.202881	3288.438721	1894.041626	21.052610
257.058594	1520.107666	3374.341064	1904.076660	20.707695
257.431793	1523.195435	3472.593750	1924.477295	20.584909
257.804993	1527.716431	3583.969238	1939.694702	20.035389
258.178162	1529.150024	3682.222412	1957.338379	19.887320
258.551270	1530.032227	3768.455322	1972.225220	19.754665
258.924377	1529.370483	3840.132080	1979.944336	19.498932
259.297485	1525.290405	3899.569580	1986.229736	19.413862
259.670502	1529.149780	3942.906982	1994.169434	19.265385
260.043518	1533.891602	3992.750732	2002.550049	19.059996
260.416473	1530.362793	4040.167725	2006.740356	18.980661
260.789459	1527.606079	4078.542725	2008.174072	18.838884
261.162354	1530.803955	4110.521484	2016.665039	18.833887
261.535278	1529.149902	4134.229980	2022.840454	18.951071
261.908142	1529.370483	4159.372070	2028.574463	18.981129
262.280975	1526.613647	4174.479004	2029.677246	18.998837
262.653717	1530.583374	4190.909668	2033.426514	18.901560
263.026520	1530.914307	4200.062012	2030.008179	18.698624
263.399261	1525.952148	4207.781250	2029.015625	18.758223
263.771973	1526.834351	4219.911133	2031.110840	18.724922
264.144653	1523.084961	4213.735840	2029.787720	18.831978
264.517334	1525.290405	4186.388184	2020.855469	18.622581
264.889954	1525.952148	4137.316406	2015.010986	18.728098
265.262543	1526.393188	4074.020508	2000.344727	18.603643
265.635071	1529.480835	3996.830078	1992.294678	18.757534
266.007599	1528.047363	3930.997070	1979.723633	18.796743
266.380127	1524.408325	3887.770752	1972.556030	18.962294
266.752594	1526.503418	3869.796143	1968.145264	18.847063
267.125031	1525.952148	3869.355225	1968.806763	18.897928
267.497437	1520.879517	3888.873535	1973.327881	19.106819
267.869843	1518.674072	3911.148438	1973.438232	19.008110
268.242218	1521.430908	3946.104980	1985.016968	19.119520
268.614532	1521.872070	4017.010498	1998.580322	19.105484
268.986816	1519.004883	4098.060547	2007.071289	18.924229
269.359100	1521.871948	4188.152832	2017.657349	18.594643
269.731354	1522.092407	4275.819824	2030.007813	18.444651
270.103516	1523.084961	4346.615234	2036.182983	18.172216
270.475708	1518.784424	4407.816406	2042.248169	18.119001
270.847839	1522.092529	4464.496094	2054.929688	18.108908
271.219971	1526.944702	4510.920898	2056.032471	17.730965
271.592041	1529.921875	4535.180664	2057.135254	17.543028
271.964081	1532.237671	4553.485840	2056.583984	17.355288
272.336151	1532.237671	4574.547852	2058.017334	17.282251
272.708130	1531.686279	4593.956055	2057.466064	17.169611
273.080109	1530.804077	4614.908203	2060.443115	17.173189
273.452026	1530.252686	4644.680664	2060.553467	17.027229
273.823914	1533.560913	4678.535156	2067.169922	16.967039
274.195770	1535.435425	4714.483887	2070.147217	16.819870
274.567627	1536.979126	4748.447754	2074.006592	16.722176
274.939423	1537.420288	4784.065918	2079.961426	16.710821
275.311249	1538.853882	4807.002441	2078.086914	16.499649
275.682983	1536.979370	4827.954590	2078.417480	16.452209
276.054688	1534.443115	4832.806641	2077.094482	16.452139
276.426422	1536.648560	4815.052734	2073.455566	16.374033
276.798065	1537.530640	4785.389648	2070.257568	16.402403
277.169708	1537.199951	4757.159668	2066.729004	16.445208
277.541321	1539.515625	4739.075195	2060.663818	16.288122
277.912903	1539.074585	4743.375977	2063.641357	16.370707
278.284424	1539.736206	4756.277344	2069.927002	16.483259
278.655945	1535.656250	4777.670410	2067.611084	16.408159
279.027435	1538.523315	4811.523926	2073.455566	16.343788
279.398865	1537.971924	4872.173828	2082.828613	16.341442
279.770294	1538.412964	4936.683105	2093.415039	16.331900
280.141663	1538.082275	4996.009766	2101.685303	16.298868
280.513031	1541.500610	5055.887695	2112.602295	16.250391
280.884369	1538.523193	5092.829102	2118.557129	16.319191
281.255676	1540.177368	5132.637207	2127.489258	16.348461
281.626953	1538.412964	5166.601074	2130.245850	16.312078
281.998199	1539.736206	5202.770996	2138.626465	16.349566
282.369385	1540.508057	5250.519043	2148.991943	16.401134
282.740540	1542.603271	5308.743164	2157.041992	16.314814
283.111694	1540.397827	5362.334961	2167.628174	16.411322
283.482819	1541.059326	5430.263184	2185.602539	16.572626
283.853912	1542.382813	5511.203613	2197.512207	16.506903
284.224945	1538.743774	5583.652832	2206.885254	16.518084
284.595978	1542.272461	5653.455566	2212.950195	16.313498
284.966980	1541.941650	5715.318359	2223.756836	16.337254
285.337952	1537.861450	5756.670410	2237.541016	16.584764
285.708893	1539.405273	5777.953613	2242.613770	16.590786
286.079803	1540.949097	5798.574219	2240.849365	16.438749
286.450684	1543.154785	5811.917480	2244.268311	16.424280
286.821533	1537.861572	5818.423340	2243.495850	16.484619
287.192322	1536.097412	5819.305176	2249.450928	16.654655
287.563110	1538.082275	5831.985840	2250.222412	16.584913
287.933868	1538.854126	5849.850098	2259.816162	16.723793
288.304596	1538.523315	5884.034668	2266.101807	16.743219
288.675262	1538.743896	5930.018555	2276.357178	16.797249
289.045929	1537.641113	5962.328613	2283.194092	16.849844
289.416565	1536.869141	5990.999023	2289.589844	16.899387
289.787170	1538.302734	5998.938477	2296.757568	17.003290
290.157745	1535.545898	6001.916016	2298.301514	17.077751
290.528259	1536.317749	5993.204102	2302.381592	17.188320
290.898773	1539.736084	6004.672852	2304.035645	17.117815
291.269226	1537.751221	6002.908691	2304.807373	17.178703
291.639679	1538.192261	5995.741211	2308.556885	17.282248
292.010101	1540.397827	6016.803223	2311.754883	17.231619
292.380463	1537.199829	6050.877441	2327.413574	17.507093
292.750824	1539.625854	6085.503418	2334.360596	17.482538
293.121155	1537.640869	6131.597168	2338.440674	17.431595
293.491455	1534.884155	6201.399414	2349.688477	17.460659
293.861725	1532.458130	6279.141602	2366.008545	17.560690
294.231964	1532.458130	6366.808594	2383.652344	17.607208
294.602142	1535.766235	6463.296875	2403.721924	17.614414
294.972321	1533.009399	6543.686035	2418.498291	17.672041
295.342468	1527.716309	6605.217773	2434.598145	17.860788
295.712555	1525.731445	6647.011230	2444.743408	17.944967
296.082672	1529.370483	6671.602051	2446.617920	17.837538
296.452728	1529.811523	6675.351074	2446.948730	17.823927
296.822693	1528.378052	6675.020020	2445.735596	17.824390
297.192657	1527.495850	6668.844727	2452.682861	17.995026
297.562622	1525.510986	6691.009766	2454.447266	17.983477
297.932556	1531.355469	6707.330566	2458.858154	17.919380
298.302460	1530.693848	6710.307129	2461.945801	17.979179
298.672333	1529.260376	6708.653320	2462.938232	18.026781
299.042145	1529.260376	6706.778809	2462.827881	18.031176
299.411957	1527.716553	6705.897461	2461.394287	18.031000
299.781677	1527.716553	6663.441406	2456.432129	18.083439
300.151428	1527.496094	6619.552734	2445.184570	18.021961
300.521149	1524.629028	6556.917969	2433.495361	18.060694
300.890839	1525.842041	6491.747559	2424.122314	18.088953
301.260468	1526.503662	6415.769531	2411.882080	18.108618
301.630096	1525.621338	6328.434570	2400.744629	18.221056
301.999695	1525.290527	6236.907715	2386.960449	18.288198
302.369232	1523.526245	6126.966309	2366.780518	18.317917
302.738739	1525.952148	6024.302246	2349.136963	18.299706
303.108246	1529.922119	5926.270020	2331.052246	18.222630
303.477692	1530.363159	5852.166504	2316.716797	18.195036
303.847137	1526.724121	5775.858398	2308.226074	18.392027
304.216553	1530.363037	5724.691406	2301.940186	18.395727
304.585876	1531.465820	5688.742188	2296.206055	18.395222
304.955231	1535.215088	5666.687988	2289.258789	18.251209
305.324493	1534.443115	5638.126953	2286.832764	18.334496
305.693787	1530.252686	5612.212891	2282.752686	18.434771
306.063049	1530.032227	5607.581055	2277.680176	18.335720
306.432251	1528.708740	5606.588379	2278.231689	18.380213
306.801422	1529.260132	5598.097656	2275.916016	18.350595
307.170593	1532.568481	5595.450684	2276.577637	18.312347
307.539673	1528.819092	5608.573730	2280.547363	18.425821
307.908783	1531.575928	5615.080078	2284.848145	18.446711
308.277832	1531.355347	5644.522949	2295.544434	18.579090
308.646851	1534.773926	5681.133301	2302.270996	18.510143
309.015839	1536.207520	5715.649414	2308.777100	18.484993
309.384796	1538.082153	5746.415039	2315.173096	18.465528
309.753723	1535.766357	5771.998047	2314.401123	18.380363
310.122620	1533.891724	5793.611816	2321.237793	18.483517
310.491486	1532.899292	5812.357422	2325.869141	18.529680
310.860352	1530.914307	5821.179199	2327.192627	18.560122
311.229126	1534.332886	5826.031250	2326.090332	18.448582
311.597931	1529.701416	5843.123535	2326.862061	18.480934
311.966675	1526.613892	5869.699219	2333.698730	18.583214
312.335388	1526.834351	5896.274414	2339.874023	18.607412
312.704071	1522.974854	5922.739746	2340.535645	18.581921
313.072723	1524.959717	5931.230957	2337.447998	18.439360
313.441345	1523.526245	5931.341309	2336.786377	18.450415
313.809875	1523.195313	5911.823242	2336.676270	18.536112
314.178436	1523.195190	5885.688477	2334.691162	18.601656
314.546967	1521.982178	5851.614258	2331.052002	18.686804
314.915466	1519.446045	5811.254883	2325.428467	18.779552
315.283936	1523.967163	5773.100586	2314.511230	18.604832
315.652374	1523.195557	5733.402344	2306.571777	18.606596
316.020752	1523.416016	5692.822266	2294.110840	18.484522
316.389130	1525.842041	5654.116699	2286.281738	18.420280
316.757416	1525.621460	5628.202637	2282.642578	18.452314
