Jaz Data File
++++++++++++++++++++++++++++++++++++
Date: Thu Sep 26 04:29:56 2019
User: jaz
Dark Spectrum Present: Yes
Reference Spectrum Present: Yes
Processed Spectrum Present: Yes
Spectrometers: JAZA3541
Integration Time (usec): 100000 (JAZA3541)
Spectra Averaged: 1 (JAZA3541)
Boxcar Smoothing: 10 (JAZA3541)
Correct for Electrical Dark: No (JAZA3541)
Strobe/Lamp Enabled: Yes (JAZA3541)
Correct for Detector Non-linearity: No (JAZA3541)
Correct for Stray Light: No (JAZA3541)
Number of Pixels in Processed Spectrum: 2048
>>>>>Begin Processed Spectral Data<<<<<
W	D	R	S	P
190.543274	0.000000	0.000000	0.000000	0.000000
190.921555	0.000000	0.000000	0.000000	0.000000
191.299805	1296.805664	1336.172974	1086.074707	-535.294312
191.678024	1229.649658	1322.278564	1167.125122	-67.500023
192.056229	1345.435913	1313.015747	1176.387939	521.428467
192.434387	1331.541504	1278.279907	1130.073486	378.261322
192.812531	1303.752808	1324.594360	1176.387939	-611.110291
193.190659	1310.699951	1296.805664	1199.545166	800.003540
193.568741	1319.962891	1359.330200	1227.333862	-235.294281
193.946793	0.000000	0.000000	0.000000	0.000000
194.324829	1207.815674	1211.785522	1073.613892	-3380.526367
194.702835	1271.994385	1273.317627	1131.617310	-10608.570313
195.080811	1337.606445	1335.070313	1190.172119	5813.352051
195.458755	1337.827148	1332.203125	1198.332275	2480.339355
195.836685	1338.268188	1331.541626	1200.868530	2042.642944
196.214569	1339.811890	1336.172974	1202.743164	3766.746094
196.592422	1341.907104	1340.032471	1207.815796	7152.933594
196.970261	1342.679077	1342.127686	1211.013550	23878.769531
197.348068	1343.781860	1343.120117	1215.314331	19413.503906
197.725861	1344.222900	1342.127563	1213.660156	6231.109863
198.103622	1343.561279	1338.157837	1212.888428	2418.325928
198.481323	1340.253052	1337.496216	1214.101318	4575.960938
198.859039	1337.937378	1335.290771	1218.181396	4524.888184
199.236694	1335.070313	1335.621460	1217.299194	-21368.349609
199.614334	1333.416138	1335.511230	1219.504639	-5437.062500
199.991959	1329.115479	1337.937134	1221.820313	-1216.270264
200.369553	1324.373657	1337.826904	1224.577026	-741.803284
200.747101	1322.499023	1341.355835	1223.584595	-524.555420
201.124619	1320.514038	1341.576294	1222.592041	-464.916962
201.502136	1316.323608	1346.538452	1218.181152	-324.815369
201.879623	1313.677246	1349.736450	1218.732666	-263.301941
202.257065	1311.030640	1351.500854	1221.268799	-221.797287
202.634476	1309.927979	1352.934570	1221.489380	-205.639633
203.011871	1305.186279	1354.809082	1222.040771	-167.555038
203.389221	1303.091064	1361.866455	1216.747803	-146.903763
203.766571	1304.745117	1367.931519	1217.409424	-138.219131
204.143875	1300.334229	1365.064331	1216.306641	-129.812225
204.521164	1296.254272	1365.284912	1212.888184	-120.766792
204.898392	1297.798096	1363.300049	1210.131348	-133.838379
205.275620	1298.459717	1368.703369	1206.602661	-130.769196
205.652817	1293.718018	1368.482910	1206.161499	-117.109131
206.029984	1293.607666	1372.673218	1208.256836	-107.949455
206.407135	1291.953613	1374.988892	1208.587524	-100.398399
206.784225	1292.394775	1374.437378	1206.933472	-104.166985
207.161301	1293.607910	1372.893555	1206.602661	-109.736450
207.538376	1298.570190	1373.555176	1207.264282	-121.765587
207.915405	1302.209229	1370.798462	1206.713013	-139.229156
208.292404	1303.422119	1370.798584	1205.058838	-145.990570
208.669373	1305.406860	1366.718506	1207.374390	-159.892090
209.046310	1302.319336	1363.961670	1209.138916	-151.163025
209.423218	1303.863159	1361.645874	1211.234131	-160.305771
209.800095	1305.737793	1357.124756	1209.690186	-186.910461
210.176956	1308.715210	1353.265137	1208.146484	-225.743866
210.553787	1308.163818	1355.911743	1205.720459	-214.550385
210.930603	1309.597412	1356.242554	1206.602661	-220.804886
211.307358	1315.221313	1353.485718	1209.910767	-275.218048
211.684113	1317.316406	1349.846680	1210.903320	-327.120178
212.060837	1316.985596	1348.413086	1214.101318	-327.370331
212.437531	1316.765015	1350.839233	1217.519775	-291.261963
212.814178	1314.008179	1354.037109	1221.710083	-230.578476
213.190826	1312.574585	1351.280273	1224.356689	-227.919724
213.567413	1313.125977	1352.383057	1228.106079	-216.572144
213.943985	1310.258789	1357.345337	1228.988037	-172.598663
214.320541	1309.266479	1357.124756	1230.090820	-165.437759
214.697052	1307.612305	1361.315186	1231.855103	-141.067291
215.073563	1309.266357	1363.300049	1232.075562	-142.856781
215.449997	1303.863159	1360.874023	1231.303711	-127.273018
215.826431	1301.326904	1362.086914	1230.972778	-115.790184
216.202850	1300.334351	1364.954102	1233.619263	-103.242561
216.579224	1298.459717	1369.695923	1231.193237	-94.427376
216.955582	1300.885742	1374.989014	1231.965332	-93.005898
217.331894	1300.554932	1374.217041	1233.729736	-90.718544
217.708191	1300.003418	1376.863647	1233.729736	-86.226234
218.084442	1300.113770	1383.480103	1233.729736	-79.629311
218.460678	1296.915771	1384.141602	1238.030396	-67.509102
218.836899	1295.041260	1385.685303	1236.045532	-65.085060
219.213074	1292.615234	1387.339478	1235.824951	-59.953274
219.589233	1294.269287	1392.191650	1235.383789	-60.134884
219.965347	1296.805542	1398.697510	1230.311279	-65.259575
220.341431	1295.592529	1399.359131	1227.995483	-65.143356
220.717499	1296.254150	1400.241455	1226.341431	-67.231979
221.093552	1295.041260	1402.336548	1222.481934	-67.625824
221.469543	1299.011108	1407.078247	1221.048340	-72.142899
221.845535	1302.980835	1407.409058	1224.577148	-75.079018
222.221466	1305.296631	1411.709595	1223.474365	-76.891258
222.597397	1305.186279	1417.884766	1222.371704	-73.483307
222.973297	1302.760376	1426.706543	1228.546997	-59.875492
223.349167	1300.554932	1437.403076	1230.862671	-50.926712
223.725006	1297.467285	1446.996826	1231.965454	-43.805279
224.100800	1295.041260	1454.385010	1234.611938	-37.923874
224.476578	1295.372070	1465.081543	1238.030396	-33.788139
224.852325	1297.577515	1475.778076	1240.897461	-31.806889
225.228058	1298.680298	1495.847778	1246.962646	-26.230314
225.603760	1297.577637	1523.195313	1252.807007	-19.843582
225.979416	1295.261963	1552.086792	1259.754150	-13.825693
226.355057	1295.372192	1590.351318	1268.024536	-9.271048
226.730652	1296.805664	1642.069214	1276.184692	-5.972531
227.106232	1296.915894	1691.912231	1288.535400	-2.121664
227.481796	1294.159180	1736.903687	1297.026123	0.647539
227.857315	1292.946167	1778.145630	1307.171265	2.931804
228.232788	1296.033813	1815.638184	1312.133545	3.098459
228.608246	1296.695435	1848.058350	1321.396362	4.479976
228.983704	1297.026245	1883.345459	1333.195557	6.168877
229.359100	1297.577637	1916.206665	1340.914673	7.005335
229.734482	1293.166748	1945.870117	1341.024902	7.332298
230.109833	1290.189453	1973.768921	1345.215332	8.049668
230.485153	1290.189331	1989.979126	1349.846802	8.525056
230.860443	1289.527710	2012.585205	1350.949463	8.494726
231.235703	1293.166748	2031.331421	1352.713867	8.066916
231.610931	1293.607788	2055.481445	1356.904175	8.307990
231.986145	1293.056396	2079.300049	1358.668579	8.345019
232.361313	1290.189209	2098.708252	1362.417847	8.933449
232.736465	1287.983765	2121.313965	1365.284912	9.276173
233.111572	1285.888550	2134.656982	1366.608154	9.510203
233.486664	1288.865845	2141.052734	1371.790894	9.730852
233.861725	1290.409668	2141.604248	1372.673096	9.664468
234.236755	1292.284302	2138.957520	1371.790894	9.390470
234.611771	1296.474731	2120.873047	1375.319702	9.563941
234.986740	1298.900635	2101.023926	1373.114136	9.252131
235.361679	1299.782959	2083.710938	1372.893555	9.326188
235.736588	1298.570068	2073.235107	1375.319580	9.907445
236.111496	1297.908447	2069.375488	1384.141357	11.177783
236.486343	1298.459717	2071.139893	1390.096191	11.859561
236.861160	1301.106323	2071.250000	1395.609741	12.270882
237.235962	1300.334351	2079.961426	1402.777588	13.140031
237.610733	1302.760376	2089.996338	1418.436279	14.693931
237.985474	1301.437134	2106.978271	1433.323120	16.372347
238.360199	1300.665283	2140.501221	1451.407837	17.949047
238.734879	1301.767944	2177.662842	1472.249390	19.463688
239.109543	1300.334473	2227.616455	1498.825073	21.405636
239.484177	1304.635132	2281.650146	1531.355591	23.205421
239.858749	1310.810303	2350.680908	1565.429688	24.485680
240.233322	1311.361694	2434.047119	1607.884644	26.411936
240.607864	1313.126099	2511.899414	1655.301758	28.543818
240.982391	1314.559570	2592.618896	1694.669067	29.741146
241.356857	1316.213745	2651.063232	1727.530151	30.813692
241.731308	1315.000610	2704.435059	1760.060791	32.031750
242.105728	1317.977905	2744.684814	1785.644165	32.779419
242.480118	1312.354126	2785.926758	1807.588379	33.607727
242.854492	1310.479492	2835.880127	1831.186523	34.135754
243.228836	1309.045898	2893.442383	1864.488892	35.057072
243.603134	1312.905518	2957.290283	1902.422485	35.850307
243.977402	1312.023193	3046.721436	1947.303711	36.621960
244.351654	1310.920532	3168.241699	2007.291992	37.493324
244.725861	1310.810303	3315.235107	2080.843994	38.416691
245.100067	1311.912964	3466.970215	2159.137451	39.313320
245.474213	1311.361694	3603.377197	2234.122803	40.259808
245.848343	1316.985474	3710.341553	2300.506836	41.093819
246.222443	1318.198486	3794.700195	2346.490234	41.521946
246.596512	1318.419067	3855.019287	2382.439209	41.946705
246.970566	1321.286133	3892.181641	2407.912109	42.266438
247.344574	1320.845093	3904.862793	2414.197754	42.312122
247.718567	1317.206055	3891.740234	2418.057373	42.759243
248.092529	1318.749756	3859.430420	2408.243164	42.881950
248.466431	1315.441650	3833.075195	2391.922852	42.757660
248.840332	1313.236206	3807.051025	2387.952881	43.095287
249.214203	1311.030640	3809.476563	2390.819824	43.218437
249.588043	1313.787598	3825.797363	2398.979980	43.200165
249.961838	1310.038330	3853.696045	2416.182617	43.486366
250.335617	1313.677124	3886.888428	2431.290039	43.432610
250.709381	1313.456665	3901.664795	2448.492676	43.854126
251.083084	1318.198608	3899.569824	2451.028564	43.884815
251.456787	1314.780029	3882.367188	2444.522461	44.000160
251.830460	1316.434204	3829.656738	2424.452881	44.087566
252.204071	1313.456787	3746.069824	2385.085449	44.052574
252.577667	1310.038452	3638.995117	2329.287842	43.764210
252.951248	1310.369263	3513.615234	2268.858154	43.503487
253.324799	1308.604858	3406.099365	2208.980469	42.926243
253.698303	1305.737671	3326.152100	2160.901611	42.326164
254.071793	1305.296631	3267.817627	2127.599365	41.900330
254.445236	1304.083618	3233.853760	2108.301758	41.674297
254.818665	1300.113770	3219.959473	2094.738037	41.390007
255.192062	1300.003418	3219.077393	2098.818359	41.625019
255.565430	1300.444458	3243.888672	2112.602295	41.789616
255.938782	1301.878052	3283.365967	2131.127930	41.849857
256.312103	1304.745117	3340.266846	2151.859131	41.616554
256.685364	1306.730225	3419.442383	2184.500000	41.547058
257.058594	1304.965820	3518.357178	2226.182861	41.620159
257.431793	1302.098633	3646.714600	2274.261719	41.463638
257.804993	1302.760254	3790.178955	2331.603760	41.361897
258.178162	1299.672729	3928.240234	2395.120605	41.674713
258.551270	1298.128906	4052.517578	2444.963867	41.636642
258.924377	1294.379639	4145.587402	2485.764893	41.785282
259.297485	1293.938599	4222.999023	2515.318115	41.698677
259.670502	1293.056396	4286.625977	2542.224365	41.728374
260.043518	1295.151489	4346.063477	2560.970947	41.489868
260.416473	1298.569946	4394.473145	2579.496582	41.374893
260.789459	1297.026123	4449.830078	2604.197510	41.460598
261.162354	1297.246704	4497.467773	2627.905762	41.580223
261.535278	1298.349365	4541.796875	2645.439453	41.532661
261.908142	1298.790527	4576.092285	2662.200928	41.601612
262.280975	1301.216553	4595.279297	2665.729492	41.423405
262.653717	1302.870605	4609.834961	2669.478760	41.325157
263.026520	1300.113892	4627.809570	2670.140137	41.170418
263.399261	1297.357056	4643.688477	2665.729248	40.891708
263.771973	1296.915894	4654.495605	2662.421387	40.669342
264.144653	1298.239258	4653.502930	2664.186035	40.710564
264.517334	1301.106323	4633.103027	2650.291748	40.491802
264.889954	1302.208862	4586.678223	2626.803467	40.329029
265.262543	1305.627563	4506.179199	2591.957275	40.190872
265.635071	1308.053589	4405.610840	2540.129395	39.775726
266.007599	1311.802856	4310.224609	2487.308838	39.204155
266.380127	1312.133545	4240.201660	2444.082031	38.658543
266.752594	1315.882935	4205.575684	2416.182617	38.076698
267.125031	1315.000732	4197.084473	2405.376221	37.832886
267.497437	1313.236328	4212.963867	2405.486572	37.667339
267.869843	1316.544556	4239.098633	2409.345947	37.391998
268.242218	1313.567261	4277.473633	2417.505859	37.246071
268.614532	1311.913208	4335.697754	2432.723877	37.066483
268.986816	1312.354126	4430.973633	2454.447510	36.621761
269.359100	1311.471924	4539.150879	2484.772217	36.351208
269.731354	1310.038452	4652.510742	2519.287598	36.178288
270.103516	1311.030762	4749.219727	2551.487305	36.078777
270.475708	1311.361572	4830.049805	2580.489258	36.068207
270.847839	1314.890381	4902.499023	2597.912109	35.762589
271.219971	1318.419067	4961.053711	2616.327637	35.631039
271.592041	1320.403809	5006.596191	2629.340088	35.509171
271.964081	1321.065552	5036.369629	2629.781006	35.224987
272.336151	1316.434204	5064.048340	2632.978760	35.130203
272.708130	1316.654785	5090.182129	2630.332031	34.812977
273.080109	1313.015869	5107.385254	2633.750488	34.807751
273.452026	1311.582275	5141.238770	2639.815430	34.682827
273.823914	1310.369263	5176.085449	2645.218994	34.530464
274.195770	1310.369263	5215.893555	2658.120605	34.508846
274.567627	1309.376831	5261.987793	2664.185791	34.276306
274.939423	1310.700073	5304.332031	2674.661621	34.153412
275.311249	1312.243896	5345.464355	2678.631348	33.878323
275.682983	1310.479492	5376.120117	2687.342773	33.865837
276.054688	1309.707520	5401.151855	2692.856689	33.805889
276.426422	1307.943115	5403.577148	2683.703857	33.590912
276.798065	1312.243896	5370.495117	2668.486328	33.419380
277.169708	1313.236206	5325.172852	2649.960449	33.318680
277.541321	1317.757446	5277.536133	2630.442383	33.150459
277.912903	1316.985352	5267.832031	2621.841064	33.027241
278.284424	1316.764893	5279.741211	2618.532959	32.848244
278.655945	1315.882813	5301.685547	2622.502686	32.781849
279.027435	1312.574707	5332.010254	2631.324707	32.809334
279.398865	1310.920532	5391.226563	2650.070801	32.819847
279.770294	1307.502075	5467.424805	2678.410889	32.955151
280.141663	1310.810303	5539.763672	2708.074219	33.040421
280.513031	1313.015869	5615.631348	2733.877930	33.023220
280.884369	1315.993164	5680.912598	2753.065186	32.923222
281.255676	1314.559570	5725.462402	2774.458008	33.097496
281.626953	1313.787720	5763.727051	2794.638184	33.277992
281.998199	1316.654907	5805.189453	2811.509766	33.303848
282.369385	1313.346680	5856.245605	2835.108154	33.497585
282.740540	1313.236328	5915.572754	2856.721436	33.536991
283.111694	1311.802856	5983.280273	2881.532715	33.602428
283.482819	1310.479492	6070.064941	2907.446777	33.552654
283.853912	1314.559570	6165.339844	2944.277832	33.597034
284.224945	1315.441772	6257.858398	2986.402100	33.808571
284.595978	1313.346436	6348.502930	3031.503662	34.123215
284.966980	1311.030762	6425.914551	3072.635254	34.440754
285.337952	1309.817749	6500.238281	3110.789795	34.697998
285.708893	1306.730103	6535.746094	3141.666016	35.091419
286.079803	1305.406860	6558.352051	3163.500000	35.372406
286.450684	1304.745239	6574.893066	3191.509277	35.800968
286.821533	1307.391846	6588.677246	3212.681641	36.076252
287.192322	1306.399414	6596.506836	3234.184814	36.441330
287.563110	1307.391968	6602.571289	3259.437012	36.864571
287.933868	1303.642700	6627.272461	3291.526123	37.340752
288.304596	1299.672852	6668.735352	3336.076660	37.928482
288.675262	1300.885742	6725.304199	3390.551025	38.523304
289.045929	1301.326782	6777.683594	3439.843262	39.049984
289.416565	1300.113770	6826.645020	3485.495850	39.543468
289.787170	1296.805664	6843.957520	3523.870605	40.147900
290.157745	1293.718018	6845.170898	3564.450928	40.903397
290.528259	1293.497437	6840.870605	3598.083984	41.543743
290.898773	1294.820801	6830.614746	3627.196045	42.132626
291.269226	1294.269287	6813.852539	3662.483154	42.905666
291.639679	1290.630371	6797.202148	3697.108887	43.701939
292.010101	1294.820801	6810.876465	3739.894775	44.326492
292.380463	1293.828369	6840.539551	3780.695801	44.834991
292.750824	1298.680298	6882.332031	3827.561768	45.290813
293.121155	1300.775391	6928.756836	3872.222168	45.690392
293.491455	1307.502197	6990.068359	3919.418945	45.963680
293.861725	1310.920532	7072.000977	3989.882813	46.501041
294.231964	1313.125977	7184.479004	4061.229248	46.805283
294.602142	1314.669678	7298.721680	4138.750977	47.193462
294.972321	1314.669800	7398.077148	4210.207520	47.597301
295.342468	1316.213623	7496.991699	4273.173340	47.841221
295.712555	1317.095825	7559.295410	4314.525879	48.018814
296.082672	1318.419067	7583.776855	4342.976074	48.274292
296.452728	1315.882813	7585.761719	4356.760742	48.499786
296.822693	1319.080688	7589.400879	4365.141113	48.579025
297.192657	1321.065552	7589.180664	4372.308594	48.678799
297.562622	1322.388916	7606.824219	4384.217773	48.720825
297.932556	1326.027954	7627.886230	4402.633301	48.820606
298.302460	1328.233398	7634.833496	4416.196289	48.963989
298.672333	1327.792358	7640.347656	4426.341309	49.085491
299.042145	1329.005127	7636.597656	4427.223145	49.118866
299.411957	1330.218140	7623.033691	4426.451660	49.202675
299.781677	1326.027954	7584.768555	4414.100586	49.340160
300.151428	1326.579224	7523.125977	4394.141602	49.504387
300.521149	1326.248291	7458.727051	4365.691406	49.563046
300.890839	1322.829956	7386.829590	4332.058594	49.624485
301.260468	1317.095825	7310.961914	4299.748535	49.761753
301.630096	1318.418945	7223.515625	4254.316406	49.718025
301.999695	1319.080688	7102.436523	4198.959473	49.795982
302.369232	1316.323975	6976.063965	4133.678223	49.778862
302.738739	1314.449219	6859.727051	4067.845703	49.652996
303.108246	1310.699951	6722.106445	4004.218750	49.774841
303.477692	1311.251343	6610.841309	3949.854248	49.788815
303.847137	1311.361816	6522.182129	3904.531982	49.765106
304.216553	1311.361572	6456.680176	3866.929199	49.667824
304.585876	1310.369141	6397.794434	3841.235840	49.747498
304.955231	1309.597046	6350.267090	3812.233887	49.648891
305.324493	1306.619751	6311.010254	3795.692627	49.737778
305.693787	1306.178711	6280.244629	3768.565918	49.504517
306.063049	1306.509521	6274.399414	3751.142822	49.208687
306.432251	1307.391846	6272.414551	3748.496338	49.166031
306.801422	1305.627319	6267.783691	3746.401367	49.187767
307.170593	1304.524658	6268.334961	3739.674561	49.058075
307.539673	1303.642456	6275.171875	3731.625000	48.837738
307.908783	1304.304077	6290.831055	3738.020508	48.805840
308.277832	1302.650146	6307.150879	3745.077637	48.804615
308.646851	1300.444702	6338.357910	3759.633545	48.813644
309.015839	1303.973389	6378.717773	3773.417725	48.661453
309.384796	1298.239258	6410.586914	3785.768311	48.657276
309.753723	1295.151733	6446.205566	3799.331787	48.614910
310.122620	1294.600220	6472.339844	3812.123535	48.622055
310.491486	1296.144165	6484.690430	3822.379150	48.688683
310.860352	1299.342041	6501.231445	3829.877686	48.646469
311.229126	1299.452148	6515.456055	3835.170654	48.614201
311.597931	1298.680298	6523.726074	3841.015137	48.656700
311.966675	1300.224121	6544.016602	3849.285645	48.611031
312.335388	1300.665161	6579.523926	3853.585938	48.361225
312.704071	1298.680298	6617.236816	3871.119141	48.367237
313.072723	1301.326904	6632.564941	3877.845703	48.328712
313.441345	1301.988525	6630.139160	3877.955811	48.346371
313.809875	1302.650146	6611.061523	3872.772949	48.416046
314.178436	1298.459839	6573.018066	3851.600830	48.404835
314.546967	1304.193970	6535.194824	3833.847168	48.358875
314.915466	1304.635132	6494.283691	3808.153320	48.240608
315.283936	1308.604858	6440.911621	3785.547607	48.261787
315.652374	1309.266602	6398.125977	3754.009766	48.041084
316.020752	1307.943237	6345.084961	3722.140625	47.927921
316.389130	1313.236328	6299.542480	3699.093750	47.848194
