Jaz Data File
++++++++++++++++++++++++++++++++++++
Date: Thu Sep 26 04:29:48 2019
User: jaz
Dark Spectrum Present: Yes
Reference Spectrum Present: Yes
Processed Spectrum Present: Yes
Spectrometers: JAZA3541
Integration Time (usec): 100000 (JAZA3541)
Spectra Averaged: 1 (JAZA3541)
Boxcar Smoothing: 10 (JAZA3541)
Correct for Electrical Dark: No (JAZA3541)
Strobe/Lamp Enabled: Yes (JAZA3541)
Correct for Detector Non-linearity: No (JAZA3541)
Correct for Stray Light: No (JAZA3541)
Number of Pixels in Processed Spectrum: 2048
>>>>>Begin Processed Spectral Data<<<<<
W	D	R	S	P
190.543274	0.000000	0.000000	0.000000	0.000000
190.921555	0.000000	0.000000	0.000000	0.000000
191.299805	1296.805664	1336.172974	1160.177856	-347.059052
191.678024	1229.649658	1322.278564	1123.126343	-115.000076
192.056229	1345.435913	1313.015747	1146.283569	614.285400
192.434387	1331.541504	1278.279907	1153.230713	334.783051
192.812531	1303.752808	1324.594360	1213.439575	-433.332550
193.190659	1310.699951	1296.805664	1197.229492	816.669861
193.568741	1319.962891	1359.330200	1222.702515	-247.058731
193.946793	0.000000	0.000000	0.000000	0.000000
194.324829	1207.815674	1211.785522	1087.949463	-3019.415039
194.702835	1271.994385	1273.317627	1146.283569	-9500.211914
195.080811	1337.606445	1335.070313	1202.412354	5330.718262
195.458755	1337.827148	1332.203125	1203.515137	2388.183594
195.836685	1338.268188	1331.541626	1207.374512	1945.922241
196.214569	1339.811890	1336.172974	1207.705322	3630.382324
196.592422	1341.907104	1340.032471	1209.469727	7064.706543
196.970261	1342.679077	1342.127686	1207.705444	24478.724609
197.348068	1343.781860	1343.120117	1211.013550	20063.419922
197.725861	1344.222900	1342.127563	1210.682739	6373.207031
198.103622	1343.561279	1338.157837	1210.241699	2467.308350
198.481323	1340.253052	1337.496216	1211.895874	4655.959961
198.859039	1337.937378	1335.290771	1213.770508	4691.550293
199.236694	1335.070313	1335.621460	1212.447266	-22248.681641
199.614334	1333.416138	1335.511230	1211.344482	-5826.551270
199.991959	1329.115479	1337.937134	1212.557617	-1321.269775
200.369553	1324.373657	1337.826904	1210.793213	-844.260437
200.747101	1322.499023	1341.355835	1211.123779	-590.636658
201.124619	1320.514038	1341.576294	1210.131470	-524.077637
201.502136	1316.323608	1346.538452	1211.785400	-345.982941
201.879623	1313.677246	1349.736450	1213.990845	-276.452026
202.257065	1311.030640	1351.500854	1214.542114	-238.418610
202.634476	1309.927979	1352.934570	1214.762817	-221.280411
203.011871	1305.186279	1354.809082	1215.975708	-179.777374
203.389221	1303.091064	1361.866455	1217.629883	-145.403000
203.766571	1304.745117	1367.931519	1219.945557	-134.205399
204.143875	1300.334229	1365.064331	1222.371582	-120.442642
204.521164	1296.254272	1365.284912	1225.679688	-102.236610
204.898392	1297.798096	1363.300049	1227.885254	-106.733978
205.275620	1298.459717	1368.703369	1225.128418	-104.395622
205.652817	1293.718018	1368.482910	1225.569458	-91.150482
206.029984	1293.607666	1372.673218	1225.459229	-86.192322
206.407135	1291.953613	1374.988892	1225.128418	-80.478081
206.784225	1292.394775	1374.437378	1224.136108	-83.199051
207.161301	1293.607910	1372.893555	1226.010742	-85.257767
207.538376	1298.570190	1373.555176	1229.649780	-91.912277
207.915405	1302.209229	1370.798462	1227.223633	-109.325607
208.292404	1303.422119	1370.798584	1229.649780	-109.492744
208.669373	1305.406860	1366.718506	1225.900635	-129.675568
209.046310	1302.319336	1363.961670	1227.334106	-121.645668
209.423218	1303.863159	1361.645874	1225.790039	-135.115005
209.800095	1305.737793	1357.124756	1223.694946	-159.656921
210.176956	1308.715210	1353.265137	1225.679688	-186.387558
210.553787	1308.163818	1355.911743	1226.451660	-171.132370
210.930603	1309.597412	1356.242554	1229.098145	-172.578033
211.307358	1315.221313	1353.485718	1229.980347	-222.768311
211.684113	1317.316406	1349.846680	1229.539307	-269.832031
212.060837	1316.985596	1348.413086	1228.657104	-281.054871
212.437531	1316.765015	1350.839233	1229.208374	-256.958618
212.814178	1314.008179	1354.037109	1228.988037	-212.396729
213.190826	1312.574585	1351.280273	1229.098267	-215.669373
213.567413	1313.125977	1352.383057	1228.436523	-215.730392
213.943985	1310.258789	1357.345337	1227.554199	-175.643768
214.320541	1309.266479	1357.124756	1229.098145	-167.511963
214.697052	1307.612305	1361.315186	1229.318604	-145.790512
215.073563	1309.266357	1363.300049	1230.641968	-145.509933
215.449997	1303.863159	1360.874023	1224.577148	-139.071762
215.826431	1301.326904	1362.086914	1224.466797	-126.497849
216.202850	1300.334351	1364.954102	1225.679932	-115.528793
216.579224	1298.459717	1369.695923	1229.980591	-96.129662
216.955582	1300.885742	1374.989014	1231.744873	-93.303398
217.331894	1300.554932	1374.217041	1231.083374	-94.311119
217.708191	1300.003418	1376.863647	1230.642212	-90.243301
218.084442	1300.113770	1383.480103	1226.892822	-87.830353
218.460678	1296.915771	1384.141602	1229.098267	-77.749336
218.836899	1295.041260	1385.685303	1228.767456	-73.114349
219.213074	1292.615234	1387.339478	1228.105957	-68.102180
219.589233	1294.269287	1392.191650	1227.664673	-68.017776
219.965347	1296.805542	1398.697510	1229.980469	-65.584244
220.341431	1295.592529	1399.359131	1229.760010	-63.442879
220.717499	1296.254150	1400.241455	1233.729736	-60.126968
221.093552	1295.041260	1402.336548	1235.163330	-55.806671
221.469543	1299.011108	1407.078247	1233.950195	-60.204159
221.845535	1302.980835	1407.409058	1233.509155	-66.525772
222.221466	1305.296631	1411.709595	1233.729736	-67.253922
222.597397	1305.186279	1417.884766	1231.744751	-65.166382
222.973297	1302.760376	1426.706543	1232.075562	-57.028641
223.349167	1300.554932	1437.403076	1238.250854	-45.527893
223.725006	1297.467285	1446.996826	1240.456299	-38.126904
224.100800	1295.041260	1454.385010	1240.566650	-34.186852
224.476578	1295.372070	1465.081543	1241.889771	-31.514034
224.852325	1297.577515	1475.778076	1244.867065	-29.579283
225.228058	1298.680298	1495.847778	1251.704102	-23.825529
225.603760	1297.577637	1523.195313	1257.769043	-17.644270
225.979416	1295.261963	1552.086792	1273.317627	-8.544476
226.355057	1295.372192	1590.351318	1282.359985	-4.411230
226.730652	1296.805664	1642.069214	1293.497437	-0.958175
227.106232	1296.915894	1691.912231	1307.832886	2.763821
227.481796	1294.159180	1736.903687	1318.419067	5.479433
227.857315	1292.946167	1778.145630	1329.115479	7.454524
228.232788	1296.033813	1815.638184	1335.401001	7.576377
228.608246	1296.695435	1848.058350	1340.804443	7.999996
228.983704	1297.026245	1883.345459	1349.405640	8.933597
229.359100	1297.577637	1916.206665	1358.117310	9.786103
229.734482	1293.166748	1945.870117	1368.703491	11.572906
230.109833	1290.189453	1973.768921	1378.627930	12.937556
230.485153	1290.189331	1989.979126	1387.560059	13.914282
230.860443	1289.527710	2012.585205	1392.963379	14.305317
231.235703	1293.166748	2031.331421	1401.233887	14.639977
231.610931	1293.607788	2055.481445	1409.504395	15.212050
231.986145	1293.056396	2079.300049	1415.679565	15.596078
232.361313	1290.189209	2098.708252	1425.714355	16.762146
232.736465	1287.983765	2121.313965	1432.220459	17.308468
233.111572	1285.888550	2134.656982	1433.874390	17.435362
233.486664	1288.865845	2141.052734	1438.175171	17.520725
233.861725	1290.409668	2141.604248	1437.733887	17.307936
234.236755	1292.284302	2138.957520	1435.638794	16.931501
234.611771	1296.474731	2120.873047	1434.977295	16.800442
234.986740	1298.900635	2101.023926	1434.315430	16.882042
235.361679	1299.782959	2083.710938	1436.410889	17.428633
235.736588	1298.570068	2073.235107	1436.190186	17.765112
236.111496	1297.908447	2069.375488	1439.057373	18.296171
236.486343	1298.459717	2071.139893	1447.107178	19.237904
236.861160	1301.106323	2071.250000	1452.731079	19.687853
237.235962	1300.334351	2079.961426	1462.876099	20.848654
237.610733	1302.760376	2089.996338	1472.690430	21.585657
237.985474	1301.437134	2106.978271	1482.173828	22.436682
238.360199	1300.665283	2140.501221	1502.353760	24.015223
238.734879	1301.767944	2177.662842	1527.606201	25.783716
239.109543	1300.334473	2227.616455	1552.197021	27.161377
239.484177	1304.635132	2281.650146	1581.970581	28.385996
239.858749	1310.810303	2350.680908	1624.425537	30.159063
240.233322	1311.361694	2434.047119	1660.926025	31.136446
240.607864	1313.126099	2511.899414	1706.799072	32.839649
240.982391	1314.559570	2592.618896	1756.311523	34.564278
241.356857	1316.213745	2651.063232	1790.826782	35.555546
241.731308	1315.000610	2704.435059	1822.916138	36.555557
242.105728	1317.977905	2744.684814	1851.917969	37.424648
242.480118	1312.354126	2785.926758	1879.486084	38.486870
242.854492	1310.479492	2835.880127	1906.833740	39.094925
243.228836	1309.045898	2893.442383	1940.025635	39.824612
243.603134	1312.905518	2957.290283	1986.891357	40.987114
243.977402	1312.023193	3046.721436	2042.799438	42.126995
244.351654	1310.920532	3168.241699	2111.168457	43.086136
244.725861	1310.810303	3315.235107	2191.667725	43.945644
245.100067	1311.912964	3466.970215	2277.900879	44.824238
245.474213	1311.361694	3603.377197	2357.407471	45.638683
245.848343	1316.985474	3710.341553	2426.769043	46.369350
246.222443	1318.198486	3794.700195	2477.825195	46.825191
246.596512	1318.419067	3855.019287	2516.530762	47.232975
246.970566	1321.286133	3892.181641	2539.908691	47.400703
247.344574	1320.845093	3904.862793	2555.787598	47.791569
247.718567	1317.206055	3891.740234	2559.647217	48.258873
248.092529	1318.749756	3859.430420	2559.647217	48.841141
248.466431	1315.441650	3833.075195	2549.391846	49.012302
248.840332	1313.236206	3807.051025	2534.505127	48.971916
249.214203	1311.030640	3809.476563	2539.467285	49.168034
249.588043	1313.787598	3825.797363	2546.745605	49.082531
249.961838	1310.038330	3853.696045	2568.358887	49.468941
250.335617	1313.677124	3886.888428	2585.561279	49.427891
250.709381	1313.456665	3901.664795	2599.566162	49.691116
251.083084	1318.198608	3899.569824	2605.520752	49.869705
251.456787	1314.780029	3882.367188	2593.060303	49.785275
251.830460	1316.434204	3829.656738	2569.130859	49.844238
252.204071	1313.456787	3746.069824	2524.360107	49.777885
252.577667	1310.038452	3638.995117	2470.547119	49.829556
252.951248	1310.369263	3513.615234	2406.809814	49.764778
253.324799	1308.604858	3406.099365	2352.003906	49.745018
253.698303	1305.737671	3326.152100	2306.020508	49.508797
254.071793	1305.296631	3267.817627	2273.269287	49.322918
254.445236	1304.083618	3233.853760	2250.333008	49.034306
254.818665	1300.113770	3219.959473	2239.856934	48.948891
255.192062	1300.003418	3219.077393	2241.069824	49.037525
255.565430	1300.444458	3243.888672	2245.921875	48.649578
255.938782	1301.878052	3283.365967	2262.131836	48.461250
256.312103	1304.745117	3340.266846	2287.825439	48.296234
256.685364	1306.730225	3419.442383	2329.287842	48.400234
257.058594	1304.965820	3518.357178	2378.138672	48.485455
257.431793	1302.098633	3646.714600	2439.450439	48.509087
257.804993	1302.760254	3790.178955	2498.556396	48.073776
258.178162	1299.672729	3928.240234	2567.035645	48.214966
258.551270	1298.128906	4052.517578	2630.001465	48.354561
258.924377	1294.379639	4145.587402	2675.544189	48.441387
259.297485	1293.938599	4222.999023	2712.044189	48.415031
259.670502	1293.056396	4286.625977	2741.928223	48.399471
260.043518	1295.151489	4346.063477	2765.085449	48.180149
260.416473	1298.569946	4394.473145	2788.353027	48.121113
260.789459	1297.026123	4449.830078	2813.164307	48.088566
261.162354	1297.246704	4497.467773	2828.822998	47.858452
261.535278	1298.349365	4541.796875	2845.804932	47.710209
261.908142	1298.790527	4576.092285	2858.927002	47.604298
262.280975	1301.216553	4595.279297	2867.638672	47.552891
262.653717	1302.870605	4609.834961	2873.924072	47.507420
263.026520	1300.113892	4627.809570	2875.137207	47.330750
263.399261	1297.357056	4643.688477	2871.498047	47.040794
263.771973	1296.915894	4654.495605	2870.064697	46.853657
264.144653	1298.239258	4653.502930	2866.977051	46.754532
264.517334	1301.106323	4633.103027	2854.185303	46.611061
264.889954	1302.208862	4586.678223	2826.506836	46.409264
265.262543	1305.627563	4506.179199	2783.390381	46.172127
265.635071	1308.053589	4405.610840	2727.812988	45.834808
266.007599	1311.802856	4310.224609	2672.787109	45.390018
266.380127	1312.133545	4240.201660	2619.966553	44.665390
266.752594	1315.882935	4205.575684	2592.288330	44.170971
267.125031	1315.000732	4197.084473	2581.371094	43.939404
267.497437	1313.236328	4212.963867	2579.165771	43.656841
267.869843	1316.544556	4239.098633	2585.341064	43.413960
268.242218	1313.567261	4277.473633	2595.375977	43.247276
268.614532	1311.913208	4335.697754	2619.635742	43.247871
268.986816	1312.354126	4430.973633	2657.679688	43.138496
269.359100	1311.471924	4539.150879	2697.377930	42.938160
269.731354	1310.038452	4652.510742	2737.296387	42.700668
270.103516	1311.030762	4749.219727	2775.450684	42.592770
270.475708	1311.361572	4830.049805	2810.627686	42.608665
270.847839	1314.890381	4902.499023	2836.872314	42.423298
271.219971	1318.419067	4961.053711	2860.360596	42.330391
271.592041	1320.403809	5006.596191	2871.828857	42.087467
271.964081	1321.065552	5036.369629	2876.570801	41.867508
272.336151	1316.434204	5064.048340	2878.224854	41.674263
272.708130	1316.654785	5090.182129	2882.084473	41.484520
273.080109	1313.015869	5107.385254	2885.061768	41.431019
273.452026	1311.582275	5141.238770	2898.735107	41.443737
273.823914	1310.369263	5176.085449	2909.983154	41.379494
274.195770	1310.369263	5215.893555	2921.561523	41.254185
274.567627	1309.376831	5261.987793	2931.707031	41.044521
274.939423	1310.700073	5304.332031	2947.034668	40.973595
275.311249	1312.243896	5345.464355	2954.864014	40.727257
275.682983	1310.479492	5376.120117	2961.480225	40.608624
276.054688	1309.707520	5401.151855	2967.434814	40.516922
276.426422	1307.943115	5403.577148	2957.510498	40.276241
276.798065	1312.243896	5370.495117	2941.300537	40.141838
277.169708	1313.236206	5325.172852	2924.649658	40.165478
277.541321	1317.757446	5277.536133	2906.895752	40.131996
277.912903	1316.985352	5267.832031	2899.617432	40.058048
278.284424	1316.764893	5279.741211	2896.750488	39.868660
278.655945	1315.882813	5301.685547	2903.918213	39.842297
279.027435	1312.574707	5332.010254	2920.348877	40.000000
279.398865	1310.920532	5391.226563	2949.130127	40.149181
279.770294	1307.502075	5467.424805	2979.785889	40.199875
280.141663	1310.810303	5539.763672	3017.609375	40.359848
280.513031	1313.015869	5615.631348	3049.919189	40.368549
280.884369	1315.993164	5680.912598	3079.141602	40.393608
281.255676	1314.559570	5725.462402	3098.108398	40.435005
281.626953	1313.787720	5763.727051	3116.744385	40.516430
281.998199	1316.654907	5805.189453	3135.711426	40.526733
282.369385	1313.346680	5856.245605	3158.316895	40.612179
282.740540	1313.236328	5915.572754	3176.953125	40.495014
283.111694	1311.802856	5983.280273	3210.586670	40.646320
283.482819	1310.479492	6070.064941	3259.216553	40.943420
283.853912	1314.559570	6165.339844	3300.789551	40.946609
284.224945	1315.441772	6257.858398	3350.081055	41.166893
284.595978	1313.346436	6348.502930	3391.543945	41.273743
284.966980	1311.030762	6425.914551	3433.227051	41.490604
285.337952	1309.817749	6500.238281	3472.703857	41.670734
285.708893	1306.730103	6535.746094	3501.705811	41.976837
286.079803	1305.406860	6558.352051	3536.993408	42.482574
286.450684	1304.745239	6574.893066	3562.687012	42.843994
286.821533	1307.391846	6588.677246	3589.373047	43.208824
287.192322	1306.399414	6596.506836	3606.575439	43.480705
287.563110	1307.391968	6602.571289	3632.379150	43.907623
287.933868	1303.642700	6627.272461	3657.410645	44.213593
288.304596	1299.672852	6668.735352	3701.409668	44.732891
288.675262	1300.885742	6725.304199	3749.708984	45.144440
289.045929	1301.326782	6777.683594	3804.734863	45.713020
289.416565	1300.113770	6826.645020	3856.783936	46.261753
289.787170	1296.805664	6843.957520	3904.531738	47.010181
290.157745	1293.718018	6845.170898	3944.119873	47.742489
290.528259	1293.497437	6840.870605	3979.737793	48.423645
290.898773	1294.820801	6830.614746	4005.762207	48.971142
291.269226	1294.269287	6813.852539	4027.485840	49.518532
291.639679	1290.630371	6797.202148	4055.936279	50.218285
292.010101	1294.820801	6810.876465	4098.060059	50.819633
292.380463	1293.828369	6840.539551	4145.808105	51.417492
292.750824	1298.680298	6882.332031	4196.202148	51.892956
293.121155	1300.775391	6928.756836	4254.426270	52.481533
293.491455	1307.502197	6990.068359	4312.209473	52.875885
293.861725	1310.920532	7072.000977	4369.771973	53.095100
294.231964	1313.125977	7184.479004	4445.198242	53.344982
294.602142	1314.669678	7298.721680	4525.807617	53.661602
294.972321	1314.669800	7398.077148	4612.922852	54.217197
295.342468	1316.213623	7496.991699	4687.577637	54.545948
295.712555	1317.095825	7559.295410	4746.683594	54.941975
296.082672	1318.419067	7583.776855	4780.096191	55.251068
296.452728	1315.882813	7585.761719	4800.275879	55.573532
296.822693	1319.080688	7589.400879	4815.052246	55.754276
297.192657	1321.065552	7589.180664	4824.756348	55.897041
297.562622	1322.388916	7606.824219	4843.171875	56.023853
297.932556	1326.027954	7627.886230	4860.815430	56.091194
298.302460	1328.233398	7634.833496	4873.828125	56.220383
298.672333	1327.792358	7640.347656	4886.729980	56.378716
299.042145	1329.005127	7636.597656	4887.832520	56.421326
299.411957	1330.218140	7623.033691	4885.406738	56.495991
299.781677	1326.027954	7584.768555	4867.763184	56.588627
300.151428	1326.579224	7523.125977	4841.518555	56.724163
300.521149	1326.248291	7458.727051	4806.341797	56.748566
300.890839	1322.829956	7386.829590	4755.947266	56.614735
301.260468	1317.095825	7310.961914	4709.191406	56.592785
301.630096	1318.418945	7223.515625	4660.120117	56.590118
301.999695	1319.080688	7102.436523	4595.279785	56.648758
302.369232	1316.323975	6976.063965	4521.948242	56.639072
302.738739	1314.449219	6859.727051	4441.890137	56.398273
303.108246	1310.699951	6722.106445	4359.847168	56.346668
303.477692	1311.251343	6610.841309	4296.661621	56.332851
303.847137	1311.361816	6522.182129	4247.369629	56.344444
304.216553	1311.361572	6456.680176	4210.648438	56.348057
304.585876	1310.369141	6397.794434	4173.486816	56.278324
304.955231	1309.597046	6350.267090	4140.625488	56.163731
305.324493	1306.619751	6311.010254	4112.836914	56.075104
305.693787	1306.178711	6280.244629	4090.451172	55.975784
306.063049	1306.509521	6274.399414	4080.527100	55.838955
306.432251	1307.391846	6272.414551	4070.602783	55.653545
306.801422	1305.627319	6267.783691	4066.191895	55.632355
307.170593	1304.524658	6268.334961	4069.059082	55.693794
307.539673	1303.642456	6275.171875	4065.971436	55.562965
307.908783	1304.304077	6290.831055	4066.742920	55.398056
308.277832	1302.650146	6307.150879	4078.211670	55.461304
308.646851	1300.444702	6338.357910	4101.588867	55.601276
309.015839	1303.973389	6378.717773	4122.541016	55.541077
309.384796	1298.239258	6410.586914	4138.530273	55.557468
309.753723	1295.151733	6446.205566	4152.204102	55.465393
310.122620	1294.600220	6472.339844	4166.759766	55.471302
310.491486	1296.144165	6484.690430	4177.787109	55.538544
310.860352	1299.342041	6501.231445	4187.049805	55.512669
311.229126	1299.452148	6515.456055	4183.852539	55.299046
311.597931	1298.680298	6523.726074	4181.866699	55.180119
311.966675	1300.224121	6544.016602	4184.513672	55.003883
312.335388	1300.665161	6579.523926	4197.525879	54.876648
312.704071	1298.680298	6617.236816	4215.941406	54.850620
313.072723	1301.326904	6632.564941	4225.975586	54.858711
313.441345	1301.988525	6630.139160	4234.908203	55.045738
313.809875	1302.650146	6611.061523	4219.028809	54.938824
314.178436	1298.459839	6573.018066	4202.818848	55.063549
314.546967	1304.193970	6535.194824	4180.543945	54.986610
314.915466	1304.635132	6494.283691	4146.580566	54.761806
315.283936	1308.604858	6440.911621	4112.947266	54.640972
315.652374	1309.266602	6398.125977	4086.702393	54.578751
316.020752	1307.943237	6345.084961	4046.783447	54.372906
316.389130	1313.236328	6299.542480	4019.436035	54.272633
