Jaz Data File
++++++++++++++++++++++++++++++++++++
Date: Fri Jun 21 02:36:06 2019
User: jaz
Dark Spectrum Present: Yes
Reference Spectrum Present: Yes
Processed Spectrum Present: Yes
Spectrometers: JAZA3541
Integration Time (usec): 119000 (JAZA3541)
Spectra Averaged: 1 (JAZA3541)
Boxcar Smoothing: 10 (JAZA3541)
Correct for Electrical Dark: No (JAZA3541)
Strobe/Lamp Enabled: Yes (JAZA3541)
Correct for Detector Non-linearity: No (JAZA3541)
Correct for Stray Light: No (JAZA3541)
Number of Pixels in Processed Spectrum: 2048
>>>>>Begin Processed Spectral Data<<<<<
W	D	R	S	P
190.543274	0.000000	0.000000	0.000000	0.000000
190.921555	0.000000	0.000000	0.000000	0.000000
191.299805	1558.482544	1405.644653	1764.582031	-134.848419
191.678024	1533.009521	1440.380615	1815.527954	-305.000305
192.056229	1539.956665	1535.325317	1769.213379	-4950.107910
192.434387	1519.115234	1551.535278	1797.002075	857.145142
192.812531	1604.796997	1597.849854	1843.316650	-3433.348633
193.190659	1556.166748	1542.272461	1829.422241	-1966.675171
193.568741	1623.322754	1530.693848	1820.159302	-212.500137
193.946793	0.000000	0.000000	0.000000	0.000000
194.324829	1410.165894	1403.770142	1626.741211	-3386.237061
194.702835	1483.938232	1477.322021	1711.099731	-3433.407715
195.080811	1555.725708	1551.645752	1797.994385	-5938.021484
195.458755	1552.307251	1560.467407	1801.192383	3050.004395
195.836685	1553.520386	1565.540039	1801.413086	2062.394775
196.214569	1554.953857	1568.627808	1801.633545	1804.011841
196.592422	1551.425171	1571.164063	1803.398071	1276.530151
196.970261	1549.219727	1570.833130	1801.854126	1168.878418
197.348068	1548.999146	1571.274170	1798.325562	1119.309326
197.725861	1545.690796	1573.810425	1798.436035	898.821411
198.103622	1539.625854	1573.589844	1797.884277	760.388977
198.481323	1540.287598	1569.399536	1797.884277	884.848938
198.859039	1539.846436	1568.958374	1796.671509	882.198486
199.236694	1536.758789	1568.296631	1790.275513	803.849304
199.614334	1539.295166	1566.201660	1788.731812	927.049988
199.991959	1540.728760	1571.604858	1789.172852	804.648560
200.369553	1537.751465	1570.502075	1788.621338	766.000610
200.747101	1536.759033	1571.935669	1789.283081	717.874329
201.124619	1535.215210	1570.502197	1790.275513	722.816895
201.502136	1531.796631	1571.274048	1794.024780	664.248474
201.879623	1529.922119	1568.517334	1797.994629	694.574463
202.257065	1525.621216	1569.730225	1800.861572	624.000305
202.634476	1525.621216	1573.589600	1802.074829	576.324646
203.011871	1524.187744	1573.258911	1800.310303	562.698181
203.389221	1524.408203	1571.715088	1797.222656	576.690796
203.766571	1523.415649	1570.722656	1794.245483	572.494141
204.143875	1523.305542	1567.635010	1797.002075	617.414429
204.521164	1526.613770	1564.878296	1796.230103	704.611694
204.898392	1524.408203	1563.444702	1793.032349	688.135864
205.275620	1523.856812	1563.665405	1796.009644	683.653442
205.652817	1524.297852	1562.783081	1797.994385	711.172913
206.029984	1529.370483	1566.422241	1796.009644	719.639709
206.407135	1528.378052	1568.848267	1795.568604	660.215332
206.784225	1530.473389	1569.950928	1797.333130	675.978638
207.161301	1530.252808	1570.281616	1798.546143	670.250610
207.538376	1528.929443	1571.274170	1797.553345	634.373901
207.915405	1529.260376	1568.517456	1799.207642	687.639709
208.292404	1529.480835	1568.737671	1798.104858	684.273254
208.669373	1525.952148	1570.833008	1800.199951	611.057373
209.046310	1524.628784	1571.053589	1795.017090	582.422058
209.423218	1528.267822	1569.509644	1796.561035	650.536743
209.800095	1530.032227	1570.612549	1795.568604	654.347656
210.176956	1530.032227	1570.833130	1795.237915	649.999573
210.553787	1531.686279	1566.201660	1796.560791	767.410095
210.930603	1535.435425	1566.091553	1795.678711	848.911133
211.307358	1536.648438	1565.760620	1796.340454	892.039001
211.684113	1538.412842	1570.391968	1798.435669	813.101746
212.060837	1534.773804	1573.920776	1798.325317	673.236023
212.437531	1533.340210	1574.802856	1799.207642	641.221558
212.814178	1532.458130	1578.772705	1803.728638	585.713013
213.190826	1532.788940	1580.426758	1799.869019	560.647156
213.567413	1530.914307	1580.095947	1796.671265	540.358032
213.943985	1528.267822	1576.015869	1797.333130	563.510620
214.320541	1528.488281	1577.669800	1795.789307	543.498901
214.697052	1527.716431	1577.228760	1794.796509	539.421387
215.073563	1529.591064	1581.198486	1798.545776	521.155090
215.449997	1529.921875	1582.852661	1801.523193	513.125427
215.826431	1528.708862	1588.586670	1801.964478	456.355408
216.202850	1529.370483	1590.792236	1802.515625	444.704254
216.579224	1533.119751	1588.807495	1799.097290	477.623108
216.955582	1533.560791	1588.586914	1801.633423	487.173401
217.331894	1531.135010	1586.932861	1798.766357	479.644531
217.708191	1532.017090	1588.035400	1795.568481	470.473663
218.084442	1537.420532	1591.674438	1797.884155	480.082703
218.460678	1534.443115	1598.180420	1797.002075	411.939240
218.836899	1532.678711	1603.694214	1800.530640	377.173889
219.213074	1532.127563	1606.892090	1803.177490	362.538147
219.589233	1531.024658	1605.348389	1801.302856	363.649933
219.965347	1533.891846	1609.869385	1798.545898	348.331970
220.341431	1535.987061	1615.713867	1796.230103	326.418488
220.717499	1535.435669	1614.721558	1792.149902	323.783020
221.093552	1534.002075	1619.242554	1794.796509	305.951385
221.469543	1535.104858	1625.197510	1794.906860	288.372009
221.845535	1536.207642	1630.380249	1796.671265	276.581085
222.221466	1537.310303	1634.350098	1797.112305	267.727264
222.597397	1535.435547	1642.069214	1796.781494	245.087646
222.973297	1537.420532	1647.362183	1798.876709	237.813583
223.349167	1536.979492	1655.853271	1798.215088	219.758804
223.725006	1537.530640	1662.359375	1801.633789	211.572403
224.100800	1538.082153	1671.952881	1800.972046	196.375931
224.476578	1538.854004	1682.097900	1805.603638	186.220596
224.852325	1537.971680	1701.726563	1806.265015	163.838379
225.228058	1541.279907	1724.332397	1806.375366	144.819366
225.603760	1540.838867	1750.246460	1807.367920	127.277641
225.979416	1536.317749	1779.248169	1810.014282	112.664581
226.355057	1535.325195	1813.322388	1816.079224	100.991676
226.730652	1533.671143	1852.028076	1819.938843	89.920357
227.106232	1534.773926	1886.543335	1822.695557	81.849533
227.481796	1531.575928	1920.286865	1828.870728	76.482231
227.857315	1528.378052	1946.972900	1830.745483	72.233910
228.232788	1528.819214	1971.673950	1834.274170	68.974075
228.608246	1531.465698	1999.903687	1836.479370	65.112923
228.983704	1534.112305	2022.950684	1837.251709	62.012196
229.359100	1531.575928	2040.263428	1839.457031	60.524605
229.734482	1528.378052	2061.546143	1841.772827	58.779732
230.109833	1529.039795	2075.881592	1849.271606	58.560230
230.485153	1528.488403	2087.349609	1853.351318	58.129444
230.860443	1521.541260	2101.575195	1853.682251	57.262337
231.235703	1520.879517	2121.534668	1856.438965	55.865574
231.610931	1519.225464	2137.523926	1858.864990	54.931324
231.986145	1517.240479	2152.079834	1866.142822	54.959156
232.361313	1516.468506	2165.532959	1866.804443	53.975525
232.736465	1519.115112	2169.833984	1870.333374	53.973885
233.111572	1517.571289	2172.921387	1870.554077	53.861713
233.486664	1518.894653	2171.708252	1873.972656	54.391945
233.861725	1517.350586	2169.944092	1871.987671	54.342724
234.236755	1520.107422	2156.931885	1868.458862	54.701328
234.611771	1522.313110	2138.516357	1866.363647	55.833939
234.986740	1523.415771	2132.671875	1864.268555	55.945732
235.361679	1526.062256	2128.922607	1861.070557	55.569801
235.736588	1526.393188	2124.952881	1861.952759	56.061172
236.111496	1527.936890	2122.196045	1861.952759	56.207104
236.486343	1528.819092	2122.857666	1860.409058	55.819603
236.861160	1527.716309	2128.371582	1863.276001	55.865604
237.235962	1529.370483	2138.626465	1866.253296	55.294132
237.610733	1532.016968	2152.962158	1871.436035	54.661678
237.985474	1532.016968	2177.111572	1870.443604	52.461552
238.360199	1533.009521	2207.988037	1874.413452	50.579971
238.734879	1534.994385	2240.628662	1878.603638	48.695091
239.109543	1532.347900	2281.539551	1889.741211	47.703857
239.484177	1533.450562	2334.360352	1898.122192	45.532173
239.858749	1535.325195	2397.105469	1905.730835	42.981449
240.233322	1530.804199	2464.923096	1913.890991	41.010494
240.607864	1528.709106	2528.660889	1923.043579	39.435349
240.982391	1529.370728	2583.025391	1931.534546	38.168465
241.356857	1527.826904	2627.685547	1939.033081	37.387184
241.731308	1533.340454	2665.288574	1946.200684	36.473423
242.105728	1529.150024	2699.583252	1954.581787	36.348228
242.480118	1528.708984	2736.414307	1959.433838	35.664730
242.854492	1529.480957	2770.378418	1967.263062	35.279476
243.228836	1527.606323	2818.898193	1976.415771	34.756622
243.603134	1531.245361	2883.187256	1989.427856	33.890694
243.977402	1529.150146	2971.956787	2007.953491	33.185551
244.351654	1526.724121	3079.692871	2033.426392	32.627975
244.725861	1527.495972	3195.809814	2055.039795	31.621378
245.100067	1529.260376	3309.391113	2070.147217	30.384670
245.474213	1530.693970	3406.872070	2079.409912	29.246473
245.848343	1529.150146	3476.453857	2088.673096	28.733213
246.222443	1528.378174	3532.362061	2095.840576	28.316715
246.596512	1530.252808	3565.884766	2100.802734	28.028147
246.970566	1530.804077	3581.543457	2098.376953	27.676500
247.344574	1531.134888	3573.714355	2095.840820	27.646706
247.718567	1528.157471	3552.431641	2089.444824	27.727833
248.092529	1533.561035	3529.936035	2085.585449	27.651339
248.466431	1533.891724	3510.307617	2082.057129	27.735327
248.840332	1534.002197	3506.668945	2086.026855	27.983675
249.214203	1533.891846	3516.923828	2091.319824	28.109884
249.588043	1529.811768	3538.868408	2094.848633	28.124487
249.961838	1525.952148	3566.656982	2092.091797	27.742359
250.335617	1524.629028	3592.460938	2094.187012	27.543726
250.709381	1522.423584	3603.377930	2097.274414	27.624384
251.083084	1521.320801	3591.468262	2096.833252	27.800554
251.456787	1521.982422	3561.474365	2090.657959	27.883196
251.830460	1521.762085	3509.425293	2076.653320	27.916763
252.204071	1522.203125	3429.367188	2060.994629	28.250925
252.577667	1521.761963	3337.069092	2043.791992	28.757118
252.951248	1521.541260	3250.725830	2031.220825	29.475140
253.324799	1517.020142	3177.835449	2024.163452	30.535805
253.698303	1516.248169	3130.969482	2015.010742	30.888462
254.071793	1518.233032	3092.374268	2013.136353	31.439575
254.445236	1520.769287	3078.479736	2010.710205	31.452631
254.818665	1521.541260	3072.855957	2016.995850	31.937723
255.192062	1521.320801	3089.396729	2019.863037	31.793245
255.565430	1525.511108	3120.272949	2026.920532	31.441023
255.938782	1522.092651	3155.891113	2035.852661	31.445740
256.312103	1523.636475	3214.445801	2044.894897	30.828930
256.685364	1522.202881	3288.438721	2057.906738	30.330256
257.058594	1520.107666	3374.341064	2069.044434	29.604513
257.431793	1523.195435	3472.593750	2085.805908	28.860723
257.804993	1527.716431	3583.969238	2105.875488	28.117117
258.178162	1529.150024	3682.222412	2121.755127	27.523697
258.551270	1530.032227	3768.455322	2130.576660	26.828907
258.924377	1529.370483	3840.132080	2138.405762	26.356472
259.297485	1525.290405	3899.569580	2143.919678	26.055454
259.670502	1529.149780	3942.906982	2152.741699	25.834906
260.043518	1533.891602	3992.750732	2158.806641	25.414837
260.416473	1530.362793	4040.167725	2168.400391	25.421801
260.789459	1527.606079	4078.542725	2175.237061	25.387970
261.162354	1530.803955	4110.521484	2177.883545	25.083351
261.535278	1529.149902	4134.229980	2183.507324	25.118515
261.908142	1529.370483	4159.372070	2186.594971	24.989510
262.280975	1526.613647	4174.479004	2188.359375	24.991669
262.653717	1530.583374	4190.909668	2184.168701	24.567865
263.026520	1530.914307	4200.062012	2185.271484	24.515585
263.399261	1525.952148	4207.781250	2188.359131	24.699821
263.771973	1526.834351	4219.911133	2187.807861	24.543434
264.144653	1523.084961	4213.735840	2182.294189	24.499990
264.517334	1525.290405	4186.388184	2170.054199	24.229242
264.889954	1525.952148	4137.316406	2157.593506	24.188175
265.262543	1526.393188	4074.020508	2146.786865	24.351822
265.635071	1529.480835	3996.830078	2133.885254	24.496105
266.007599	1528.047363	3930.997070	2122.416748	24.734991
266.380127	1524.408325	3887.770752	2116.352051	25.046677
266.752594	1526.503418	3869.796143	2113.815186	25.063526
267.125031	1525.952148	3869.355225	2118.557129	25.288223
267.497437	1520.879517	3888.873535	2121.093262	25.346928
267.869843	1518.674072	3911.148438	2124.952637	25.341068
268.242218	1521.430908	3946.104980	2128.812500	25.050030
268.614532	1521.872070	4017.010498	2138.957275	24.731503
268.986816	1519.004883	4098.060547	2151.748779	24.533937
269.359100	1521.871948	4188.152832	2164.871338	24.115967
269.731354	1522.092407	4275.819824	2173.803467	23.666504
270.103516	1523.084961	4346.615234	2188.359375	23.561794
270.475708	1518.784424	4407.816406	2200.820313	23.607765
270.847839	1522.092529	4464.496094	2207.216064	23.284485
271.219971	1526.944702	4510.920898	2211.626953	22.945299
271.592041	1529.921875	4535.180664	2215.707031	22.819504
271.964081	1532.237671	4553.485840	2222.985107	22.862984
272.336151	1532.237671	4574.547852	2230.373535	22.947557
272.708130	1531.686279	4593.956055	2236.107666	23.003244
273.080109	1530.804077	4614.908203	2239.526123	22.979836
273.452026	1530.252686	4644.680664	2248.127441	23.049971
273.823914	1533.560913	4678.535156	2254.854004	22.934786
274.195770	1535.435425	4714.483887	2260.808594	22.817305
274.567627	1536.979126	4748.447754	2266.212158	22.707150
274.939423	1537.420288	4784.065918	2268.968994	22.532448
275.311249	1538.853882	4807.002441	2268.527832	22.326830
275.682983	1536.979370	4827.954590	2273.379883	22.376362
276.054688	1534.443115	4832.806641	2274.482422	22.436560
276.426422	1536.648560	4815.052734	2274.151611	22.495792
276.798065	1537.530640	4785.389648	2270.623047	22.571560
277.169708	1537.199951	4757.159668	2270.843506	22.784246
277.541321	1539.515625	4739.075195	2269.079346	22.802004
277.912903	1539.074585	4743.375977	2270.071533	22.812990
278.284424	1539.736206	4756.277344	2272.718262	22.787897
278.655945	1535.656250	4777.670410	2276.246826	22.843533
279.027435	1538.523315	4811.523926	2279.003662	22.623899
279.398865	1537.971924	4872.173828	2288.376953	22.506287
279.770294	1538.412964	4936.683105	2300.176270	22.416208
280.141663	1538.082275	4996.009766	2311.533936	22.367493
280.513031	1541.500610	5055.887695	2316.165527	22.042673
280.884369	1538.523193	5092.829102	2317.929932	21.928522
281.255676	1540.177368	5132.637207	2318.370850	21.661856
281.626953	1538.412964	5166.601074	2321.899658	21.594435
281.998199	1539.736206	5202.770996	2331.493408	21.614788
282.369385	1540.508057	5250.519043	2342.079590	21.605639
282.740540	1542.603271	5308.743164	2350.680908	21.456388
283.111694	1540.397827	5362.334961	2364.134033	21.552847
283.482819	1541.059326	5430.263184	2375.602295	21.457939
283.853912	1542.382813	5511.203613	2386.298828	21.263647
284.224945	1538.743774	5583.652832	2396.995117	21.218061
284.595978	1542.272461	5653.455566	2407.360840	21.042322
284.966980	1541.941650	5715.318359	2417.836670	20.987680
285.337952	1537.861450	5756.670410	2425.776123	21.046572
285.708893	1539.405273	5777.953613	2432.723633	21.076046
286.079803	1540.949097	5798.574219	2436.031738	21.023050
286.450684	1543.154785	5811.917480	2439.781006	21.004358
286.821533	1537.861572	5818.423340	2446.177002	21.219540
287.192322	1536.097412	5819.305176	2449.815918	21.332573
287.563110	1538.082275	5831.985840	2450.587891	21.251192
287.933868	1538.854126	5849.850098	2455.329346	21.259012
288.304596	1538.523315	5884.034668	2466.908203	21.364227
288.675262	1538.743896	5930.018555	2481.022949	21.457987
289.045929	1537.641113	5962.328613	2495.799561	21.654827
289.416565	1536.869141	5990.999023	2501.643799	21.660227
289.787170	1538.302734	5998.938477	2503.628906	21.641001
290.157745	1535.545898	6001.916016	2508.811768	21.790981
290.528259	1536.317749	5993.204102	2516.310303	21.988279
290.898773	1539.736084	6004.672852	2519.397949	21.941227
291.269226	1537.751221	6002.908691	2523.588379	22.078442
291.639679	1538.192261	5995.741211	2530.645752	22.264557
292.010101	1540.397827	6016.803223	2533.733398	22.190475
292.380463	1537.199829	6050.877441	2539.026367	22.195349
292.750824	1539.625854	6085.503418	2542.334717	22.057543
293.121155	1537.640869	6131.597168	2551.597412	22.071533
293.491455	1534.884155	6201.399414	2560.198730	21.971741
293.861725	1532.458130	6279.141602	2573.541748	21.932863
294.231964	1532.458130	6366.808594	2586.994873	21.813410
294.602142	1535.766235	6463.296875	2601.440430	21.626942
294.972321	1533.009399	6543.686035	2613.019043	21.554167
295.342468	1527.716309	6605.217773	2627.244141	21.654900
295.712555	1525.731445	6647.011230	2631.103760	21.583908
296.082672	1529.370483	6671.602051	2637.279053	21.545288
296.452728	1529.811523	6675.351074	2630.221680	21.385710
296.822693	1528.378052	6675.020020	2630.993408	21.423975
297.192657	1527.495850	6668.844727	2636.286621	21.566147
297.562622	1525.510986	6691.009766	2636.948242	21.516552
297.932556	1531.355469	6707.330566	2635.625000	21.334522
298.302460	1530.693848	6710.307129	2633.419678	21.289732
298.672333	1529.260376	6708.653320	2636.176514	21.371542
299.042145	1529.260376	6706.778809	2630.883545	21.277050
299.411957	1527.716553	6705.897461	2626.472900	21.218966
299.781677	1527.716553	6663.441406	2623.385010	21.334253
300.151428	1527.496094	6619.552734	2615.004395	21.356956
300.521149	1524.629028	6556.917969	2607.836426	21.525143
300.890839	1525.842041	6491.747559	2598.573730	21.601936
301.260468	1526.503662	6415.769531	2586.333252	21.676662
301.630096	1525.621338	6328.434570	2575.306152	21.855623
301.999695	1525.290527	6236.907715	2564.499023	22.056301
302.369232	1523.526245	6126.966309	2551.487061	22.330275
302.738739	1525.952148	6024.302246	2537.923340	22.496496
303.108246	1529.922119	5926.270020	2518.184814	22.479176
303.477692	1530.363159	5852.166504	2507.708984	22.614307
303.847137	1526.724121	5775.858398	2495.358398	22.796038
304.216553	1530.363037	5724.691406	2491.829590	22.923018
304.585876	1531.465820	5688.742188	2481.905029	22.862064
304.955231	1535.215088	5666.687988	2477.273926	22.802011
305.324493	1534.443115	5638.126953	2480.912598	23.063900
305.693787	1530.252686	5612.212891	2480.251221	23.273096
306.063049	1530.032227	5607.581055	2482.897705	23.368586
306.432251	1528.708740	5606.588379	2480.140869	23.331541
306.801422	1529.260132	5598.097656	2483.890137	23.461985
307.170593	1532.568481	5595.450684	2482.456543	23.379660
307.539673	1528.819092	5608.573730	2484.772217	23.431633
307.908783	1531.575928	5615.080078	2492.270752	23.526236
308.277832	1531.355347	5644.522949	2500.100342	23.552286
308.646851	1534.773926	5681.133301	2508.922119	23.494061
309.015839	1536.207520	5715.649414	2513.553467	23.384604
309.384796	1538.082153	5746.415039	2516.861572	23.258127
309.753723	1535.766357	5771.998047	2520.280029	23.240318
310.122620	1533.891724	5793.611816	2524.911377	23.264900
310.491486	1532.899292	5812.357422	2528.550293	23.265820
310.860352	1530.914307	5821.179199	2533.622803	23.371717
311.229126	1534.332886	5826.031250	2535.497314	23.327932
311.597931	1529.701416	5843.123535	2539.246826	23.404745
311.966675	1526.613892	5869.699219	2546.966064	23.493717
312.335388	1526.834351	5896.274414	2552.148682	23.465578
312.704071	1522.974854	5922.739746	2554.795410	23.451721
313.072723	1524.959717	5931.230957	2553.472168	23.342012
313.441345	1523.526245	5931.341309	2553.361816	23.363857
313.809875	1523.195313	5911.823242	2547.186279	23.332827
314.178436	1523.195190	5885.688477	2544.870605	23.419531
314.546967	1521.982178	5851.614258	2534.284668	23.380798
314.915466	1519.446045	5811.254883	2531.858643	23.589417
315.283936	1523.967163	5773.100586	2526.344971	23.590172
315.652374	1523.195557	5733.402344	2518.184814	23.632788
316.020752	1523.416016	5692.822266	2507.267822	23.596928
316.389130	1525.842041	5654.116699	2500.541260	23.610331
316.757416	1525.621460	5628.202637	2497.122803	23.680248
