Jaz Data File
++++++++++++++++++++++++++++++++++++
Date: Fri Jun 21 03:11:02 2019
User: jaz
Dark Spectrum Present: Yes
Reference Spectrum Present: Yes
Processed Spectrum Present: Yes
Spectrometers: JAZA3541
Integration Time (usec): 119000 (JAZA3541)
Spectra Averaged: 1 (JAZA3541)
Boxcar Smoothing: 10 (JAZA3541)
Correct for Electrical Dark: No (JAZA3541)
Strobe/Lamp Enabled: Yes (JAZA3541)
Correct for Detector Non-linearity: No (JAZA3541)
Correct for Stray Light: No (JAZA3541)
Number of Pixels in Processed Spectrum: 2048
>>>>>Begin Processed Spectral Data<<<<<
W	D	R	S	P
190.543274	0.000000	0.000000	0.000000	0.000000
190.921555	0.000000	0.000000	0.000000	0.000000
191.299805	1558.482544	1405.644653	1692.794556	-87.878738
191.678024	1533.009521	1440.380615	1778.476318	-265.000214
192.056229	1539.956665	1535.325317	1764.582031	-4850.107910
192.434387	1519.115234	1551.535278	1766.897705	764.287903
192.812531	1604.796997	1597.849854	1711.320313	-1533.339722
193.190659	1556.166748	1542.272461	1762.266235	-1483.339722
193.568741	1623.322754	1530.693848	1810.896484	-202.500214
193.946793	0.000000	0.000000	0.000000	0.000000
194.324829	1410.165894	1403.770142	1589.579468	-2805.198975
194.702835	1483.938232	1477.322021	1673.607178	-2866.730713
195.080811	1555.725708	1551.645752	1756.973267	-4932.591309
195.458755	1552.307251	1560.467407	1757.745117	2517.572754
195.836685	1553.520386	1565.540039	1756.862915	1691.750366
196.214569	1554.953857	1568.627808	1756.531982	1474.176270
196.592422	1551.425171	1571.164063	1755.981079	1036.308960
196.970261	1549.219727	1570.833130	1756.091309	957.144897
197.348068	1548.999146	1571.274170	1759.289063	944.061462
197.725861	1545.690796	1573.810425	1757.083496	751.762085
198.103622	1539.625854	1573.589844	1758.737549	645.129456
198.481323	1540.287598	1569.399536	1756.642456	743.182617
198.859039	1539.846436	1568.958374	1752.893066	731.818787
199.236694	1536.758789	1568.296631	1753.885376	688.463684
199.614334	1539.295166	1566.201660	1753.665161	796.722107
199.991959	1540.728760	1571.604858	1753.554688	689.290222
200.369553	1537.751465	1570.502075	1754.106079	660.612488
200.747101	1536.759033	1571.935669	1752.010742	611.916687
201.124619	1535.215210	1570.502197	1751.790405	613.753723
201.502136	1531.796631	1571.274048	1747.710205	546.929321
201.879623	1529.922119	1568.517334	1749.254150	568.288147
202.257065	1525.621216	1569.730225	1746.938232	501.750153
202.634476	1525.621216	1573.589600	1747.379272	462.300446
203.011871	1524.187744	1573.258911	1748.261719	456.630615
203.389221	1524.408203	1571.715088	1748.702515	474.126160
203.766571	1523.415649	1570.722656	1748.482178	475.757294
204.143875	1523.305542	1567.635010	1750.467041	512.439026
204.521164	1526.613770	1564.878296	1748.482178	579.827942
204.898392	1524.408203	1563.444702	1749.915771	577.683899
205.275620	1523.856812	1563.665405	1750.687866	569.804260
205.652817	1524.297852	1562.783081	1753.334473	595.128662
206.029984	1529.370483	1566.422241	1754.877930	608.628174
206.407135	1528.378052	1568.848267	1754.547119	558.853149
206.784225	1530.473389	1569.950928	1756.862671	573.463501
207.161301	1530.252808	1570.281616	1754.988037	561.433716
207.538376	1528.929443	1571.274170	1755.870483	535.936951
207.915405	1529.260376	1568.517456	1754.436890	573.594666
208.292404	1529.480835	1568.737671	1754.547241	573.317749
208.669373	1525.952148	1570.833008	1756.091187	512.777710
209.046310	1524.628784	1571.053589	1753.885620	493.824005
209.423218	1528.267822	1569.509644	1754.767822	549.199829
209.800095	1530.032227	1570.612549	1751.900635	546.738892
210.176956	1530.032227	1570.833130	1750.908081	541.350403
210.553787	1531.686279	1566.201660	1748.151367	627.155457
210.930603	1535.435425	1566.091553	1744.622559	682.366455
211.307358	1536.648438	1565.760620	1743.961182	712.116821
211.684113	1538.412842	1570.391968	1745.394531	647.239990
212.060837	1534.773804	1573.920776	1746.607300	541.123596
212.437531	1533.340210	1574.802856	1750.466919	523.668213
212.814178	1532.458130	1578.772705	1752.231445	474.523010
213.190826	1532.788940	1580.426758	1749.474487	454.860352
213.567413	1530.914307	1580.095947	1745.614990	436.546417
213.943985	1528.267822	1576.015869	1742.086304	447.805725
214.320541	1528.488281	1577.669800	1744.071045	438.341003
214.697052	1527.716431	1577.228760	1744.843018	438.530334
215.073563	1529.591064	1581.198486	1745.725220	418.804413
215.449997	1529.921875	1582.852661	1744.181519	404.792114
215.826431	1528.708862	1588.586670	1743.519897	358.748993
216.202850	1529.370483	1590.792236	1741.645264	345.601959
216.579224	1533.119751	1588.807495	1739.439941	370.494781
216.955582	1533.560791	1588.586914	1742.307129	379.358612
217.331894	1531.135010	1586.932861	1742.527710	378.854553
217.708191	1532.017090	1588.035400	1746.387085	382.678436
218.084442	1537.420532	1591.674438	1753.995850	399.188446
218.460678	1534.443115	1598.180420	1758.075928	350.866455
218.836899	1532.678711	1603.694214	1761.604736	322.360626
219.213074	1532.127563	1606.892090	1764.030640	310.177948
219.589233	1531.024658	1605.348389	1765.023071	314.836731
219.965347	1533.891846	1609.869385	1763.258545	301.887512
220.341431	1535.987061	1615.713867	1762.265991	283.817871
220.717499	1535.435669	1614.721558	1763.809937	288.038971
221.093552	1534.002075	1619.242554	1759.729858	264.812897
221.469543	1535.104858	1625.197510	1759.178711	248.714905
221.845535	1536.207642	1630.380249	1757.304077	234.777863
222.221466	1537.310303	1634.350098	1755.318970	224.659042
222.597397	1535.435547	1642.069214	1754.546875	205.480438
222.973297	1537.420532	1647.362183	1753.885376	196.890656
223.349167	1536.979492	1655.853271	1755.429321	183.766205
223.725006	1537.530640	1662.359375	1761.494629	179.417007
224.100800	1538.082153	1671.952881	1764.030640	168.781097
224.476578	1538.854004	1682.097900	1768.220947	160.123367
224.852325	1537.971680	1701.726563	1770.536621	142.020157
225.228058	1541.279907	1724.332397	1778.145508	129.397644
225.603760	1540.838867	1750.246460	1775.829590	112.216904
225.979416	1536.317749	1779.248169	1775.719482	98.547447
226.355057	1535.325195	1813.322388	1777.925171	87.267059
226.730652	1533.671143	1852.028076	1780.020142	77.381386
227.106232	1534.773926	1886.543335	1781.894775	70.250809
227.481796	1531.575928	1920.286865	1784.210327	64.992874
227.857315	1528.378052	1946.972900	1785.313232	61.380398
228.232788	1528.819214	1971.673950	1785.423584	57.943237
228.608246	1531.465698	1999.903687	1784.982300	54.119564
228.983704	1534.112305	2022.950684	1789.834229	52.312160
229.359100	1531.575928	2040.263428	1792.260254	51.246456
229.734482	1528.378052	2061.546143	1795.568604	50.113754
230.109833	1529.039795	2075.881592	1800.310303	49.606762
230.485153	1528.488403	2087.349609	1801.633545	48.875309
230.860443	1521.541260	2101.575195	1808.911499	49.543694
231.235703	1520.879517	2121.534668	1809.573242	48.063141
231.610931	1519.225464	2137.523926	1808.911621	46.852154
231.986145	1517.240479	2152.079834	1811.778687	46.395706
232.361313	1516.468506	2165.532959	1813.101929	45.701691
232.736465	1519.115112	2169.833984	1814.204590	45.348228
233.111572	1517.571289	2172.921387	1813.763550	45.196033
233.486664	1518.894653	2171.708252	1816.740845	45.624996
233.861725	1517.350586	2169.944092	1816.409912	45.826279
234.236755	1520.107422	2156.931885	1820.159424	47.116909
234.611771	1522.313110	2138.516357	1821.923950	48.622082
234.986740	1523.415771	2132.671875	1825.342285	49.556583
235.361679	1526.062256	2128.922607	1821.923706	49.076283
235.736588	1526.393188	2124.952881	1821.372437	49.281509
236.111496	1527.936890	2122.196045	1822.364990	49.545403
236.486343	1528.819092	2122.857666	1823.908813	49.675179
236.861160	1527.716309	2128.371582	1827.878540	49.972462
237.235962	1529.370483	2138.626465	1832.179321	49.701412
237.610733	1532.016968	2152.962158	1836.148804	48.978855
237.985474	1532.016968	2177.111572	1841.772705	48.017101
238.360199	1533.009521	2207.988037	1848.278809	46.708046
238.734879	1534.994385	2240.628662	1853.241089	45.100800
239.109543	1532.347900	2281.539551	1863.496460	44.200779
239.484177	1533.450562	2334.360352	1872.759155	42.365395
239.858749	1535.325195	2397.105469	1878.272827	39.795254
240.233322	1530.804199	2464.923096	1884.448120	37.858555
240.607864	1528.709106	2528.660889	1895.365356	36.667393
240.982391	1529.370728	2583.025391	1899.224731	35.102013
241.356857	1527.826904	2627.685547	1904.848389	34.279087
241.731308	1533.340454	2665.288574	1908.818481	33.170956
242.105728	1529.150024	2699.583252	1906.612915	32.249844
242.480118	1528.708984	2736.414307	1908.377197	31.437157
242.854492	1529.480957	2770.378418	1912.677856	30.880625
243.228836	1527.606323	2818.898193	1921.500000	30.503845
243.603134	1531.245361	2883.187256	1933.629883	29.763449
243.977402	1529.150146	2971.956787	1952.265991	29.325888
244.351654	1526.724121	3079.692871	1972.335571	28.694168
244.725861	1527.495972	3195.809814	1986.671143	27.523310
245.100067	1529.260376	3309.391113	2002.439941	26.581169
245.474213	1530.693970	3406.872070	2017.988525	25.972723
245.848343	1529.150146	3476.453857	2022.399170	25.329845
246.222443	1528.378174	3532.362061	2032.213501	25.141685
246.596512	1530.252808	3565.884766	2036.844849	24.886229
246.970566	1530.804077	3581.543457	2038.939941	24.778179
247.344574	1531.134888	3573.714355	2040.704224	24.947344
247.718567	1528.157471	3552.431641	2040.042725	25.287348
248.092529	1533.561035	3529.936035	2043.681763	25.552349
248.466431	1533.891724	3510.307617	2041.697021	25.693241
248.840332	1534.002197	3506.668945	2043.571655	25.831503
249.214203	1533.891846	3516.923828	2047.431030	25.896667
249.588043	1529.811768	3538.868408	2057.465820	26.263771
249.961838	1525.952148	3566.656982	2063.641113	26.348198
250.335617	1524.629028	3592.460938	2069.595703	26.354494
250.709381	1522.423584	3603.377930	2073.565430	26.485052
251.083084	1521.320801	3591.468262	2075.550293	26.772465
251.456787	1521.982422	3561.474365	2069.044189	26.823433
251.830460	1521.762085	3509.425293	2057.465332	26.951408
252.204071	1522.203125	3429.367188	2041.145264	27.210146
252.577667	1521.761963	3337.069092	2031.992798	28.107136
252.951248	1521.541260	3250.725830	2016.775513	28.639757
253.324799	1517.020142	3177.835449	2004.866089	29.373882
253.698303	1516.248169	3130.969482	2003.101807	30.150938
254.071793	1518.233032	3092.374268	1993.177124	30.171631
254.445236	1520.769287	3078.479736	1989.758545	30.107601
254.818665	1521.541260	3072.855957	1991.853760	30.317028
255.192062	1521.320801	3089.396729	1988.104370	29.767920
255.565430	1525.511108	3120.272949	1994.169434	29.387356
255.938782	1522.092651	3155.891113	1993.948853	28.880930
256.312103	1523.636475	3214.445801	2001.888428	28.285387
256.685364	1522.202881	3288.438721	2014.790771	27.889135
257.058594	1520.107666	3374.341064	2027.141357	27.344654
257.431793	1523.195435	3472.593750	2038.609619	26.439655
257.804993	1527.716431	3583.969238	2057.907471	25.784330
258.178162	1529.150024	3682.222412	2074.117432	25.311153
258.551270	1530.032227	3768.455322	2082.608154	24.685947
258.924377	1529.370483	3840.132080	2093.083984	24.395138
259.297485	1525.290405	3899.569580	2103.559814	24.355576
259.670502	1529.149780	3942.906982	2109.735352	24.053186
260.043518	1533.891602	3992.750732	2116.902832	23.710640
260.416473	1530.362793	4040.167725	2118.777588	23.444643
260.789459	1527.606079	4078.542725	2130.245850	23.624256
261.162354	1530.803955	4110.521484	2137.523926	23.518852
261.535278	1529.149902	4134.229980	2143.037354	23.565012
261.908142	1529.370483	4159.372070	2149.654053	23.584913
262.280975	1526.613647	4174.479004	2155.608643	23.754797
262.653717	1530.583374	4190.909668	2157.042236	23.548197
263.026520	1530.914307	4200.062012	2164.871582	23.751301
263.399261	1525.952148	4207.781250	2165.974365	23.865137
263.771973	1526.834351	4219.911133	2172.370117	23.970196
264.144653	1523.084961	4213.735840	2170.826172	24.073774
264.517334	1525.290405	4186.388184	2165.753662	24.067635
264.889954	1525.952148	4137.316406	2160.239746	24.289511
265.262543	1526.393188	4074.020508	2151.307861	24.529280
265.635071	1529.480835	3996.830078	2136.090332	24.585474
266.007599	1528.047363	3930.997070	2129.363525	25.024084
266.380127	1524.408325	3887.770752	2127.489014	25.517910
266.752594	1526.503418	3869.796143	2124.842529	25.534117
267.125031	1525.952148	3869.355225	2128.150635	25.697605
267.497437	1520.879517	3888.873535	2133.554199	25.873150
267.869843	1518.674072	3911.148438	2139.067871	25.931053
268.242218	1521.430908	3946.104980	2149.212891	25.891397
268.614532	1521.872070	4017.010498	2161.011963	25.615408
268.986816	1519.004883	4098.060547	2177.222168	25.521639
269.359100	1521.871948	4188.152832	2192.108887	25.137524
269.731354	1522.092407	4275.819824	2205.892578	24.831802
270.103516	1523.084961	4346.615234	2214.494141	24.487400
270.475708	1518.784424	4407.816406	2222.103027	24.344439
270.847839	1522.092529	4464.496094	2226.072754	23.925346
271.219971	1526.944702	4510.920898	2231.807129	23.621584
271.592041	1529.921875	4535.180664	2235.556152	23.479984
271.964081	1532.237671	4553.485840	2237.761963	23.352081
272.336151	1532.237671	4574.547852	2245.591064	23.447754
272.708130	1531.686279	4593.956055	2246.694092	23.348949
273.080109	1530.804077	4614.908203	2248.678467	23.276594
273.452026	1530.252686	4644.680664	2254.302734	23.248251
273.823914	1533.560913	4678.535156	2261.470459	23.145168
274.195770	1535.435425	4714.483887	2266.873779	23.008091
274.567627	1536.979126	4748.447754	2273.269531	22.926905
274.939423	1537.420288	4784.065918	2280.326904	22.882282
275.311249	1538.853882	4807.002441	2285.950928	22.859949
275.682983	1536.979370	4827.954590	2291.464355	22.925880
276.054688	1534.443115	4832.806641	2291.464355	22.951420
276.426422	1536.648560	4815.052734	2284.186279	22.801878
276.798065	1537.530640	4785.389648	2275.805908	22.731138
277.169708	1537.199951	4757.159668	2267.204346	22.671228
277.541321	1539.515625	4739.075195	2266.102051	22.708952
277.912903	1539.074585	4743.375977	2265.550537	22.671900
278.284424	1539.736206	4756.277344	2271.395020	22.746758
278.655945	1535.656250	4777.670410	2280.106445	22.962584
279.027435	1538.523315	4811.523926	2290.802734	22.984396
279.398865	1537.971924	4872.173828	2301.058105	22.886621
279.770294	1538.412964	4936.683105	2312.967529	22.792614
280.141663	1538.082275	4996.009766	2320.355957	22.622616
280.513031	1541.500610	5055.887695	2330.831543	22.459988
280.884369	1538.523193	5092.829102	2336.345215	22.446634
281.255676	1540.177368	5132.637207	2348.805908	22.509048
281.626953	1538.412964	5166.601074	2352.665771	22.442410
281.998199	1539.736206	5202.770996	2358.620605	22.355354
282.369385	1540.508057	5250.519043	2367.883301	22.301153
282.740540	1542.603271	5308.743164	2374.720215	22.094690
283.111694	1540.397827	5362.334961	2383.983154	22.072193
283.482819	1541.059326	5430.263184	2395.341064	21.965466
283.853912	1542.382813	5511.203613	2412.323486	21.919374
284.224945	1538.743774	5583.652832	2432.172607	22.087736
284.595978	1542.272461	5653.455566	2446.838867	22.002581
284.966980	1541.941650	5715.318359	2456.542725	21.915133
285.337952	1537.861450	5756.670410	2463.159180	21.932676
285.708893	1539.405273	5777.953613	2470.657715	21.971024
286.079803	1540.949097	5798.574219	2470.657471	21.836315
286.450684	1543.154785	5811.917480	2475.729980	21.846498
286.821533	1537.861572	5818.423340	2475.840332	21.912518
287.192322	1536.097412	5819.305176	2484.551758	22.143551
287.563110	1538.082275	5831.985840	2488.080566	22.124352
287.933868	1538.854126	5849.850098	2496.681641	22.218241
288.304596	1538.523315	5884.034668	2505.172607	22.244778
288.675262	1538.743896	5930.018555	2519.177246	22.326853
289.045929	1537.641113	5962.328613	2526.786133	22.355139
289.416565	1536.869141	5990.999023	2538.916260	22.497034
289.787170	1538.302734	5998.938477	2543.878418	22.543327
290.157745	1535.545898	6001.916016	2550.053467	22.714365
290.528259	1536.317749	5993.204102	2555.897949	22.876514
290.898773	1539.736084	6004.672852	2558.434570	22.815519
291.269226	1537.751221	6002.908691	2565.712158	23.021832
291.639679	1538.192261	5995.741211	2566.483887	23.068544
292.010101	1540.397827	6016.803223	2569.571777	22.991081
292.380463	1537.199829	6050.877441	2579.606689	23.094402
292.750824	1539.625854	6085.503418	2596.809082	23.255867
293.121155	1537.640869	6131.597168	2609.380127	23.329332
293.491455	1534.884155	6201.399414	2625.369873	23.368309
293.861725	1532.458130	6279.141602	2647.203613	23.484722
294.231964	1532.458130	6366.808594	2665.509277	23.437504
294.602142	1535.766235	6463.296875	2687.343262	23.370266
294.972321	1533.009399	6543.686035	2701.678711	23.323582
295.342468	1527.716309	6605.217773	2718.550293	23.453150
295.712555	1525.731445	6647.011230	2725.387207	23.424921
296.082672	1529.370483	6671.602051	2730.569824	23.359495
296.452728	1529.811523	6675.351074	2738.509277	23.490204
296.822693	1528.378052	6675.020020	2745.235840	23.643723
297.192657	1527.495850	6668.844727	2744.464111	23.670216
297.562622	1525.510986	6691.009766	2751.631836	23.736736
297.932556	1531.355469	6707.330566	2755.160645	23.643953
298.302460	1530.693848	6710.307129	2757.034912	23.676306
298.672333	1529.260376	6708.653320	2758.248047	23.728411
299.042145	1529.260376	6706.778809	2754.830078	23.670986
299.411957	1527.716553	6705.897461	2754.168213	23.684992
299.781677	1527.716553	6663.441406	2750.308838	23.805643
300.151428	1527.496094	6619.552734	2738.730225	23.786737
300.521149	1524.629028	6556.917969	2725.718018	23.867647
300.890839	1525.842041	6491.747559	2715.241943	23.951321
301.260468	1526.503662	6415.769531	2701.898926	24.040323
301.630096	1525.621338	6328.434570	2687.453613	24.190660
301.999695	1525.290527	6236.907715	2669.920166	24.293774
302.369232	1523.526245	6126.966309	2649.630127	24.462227
302.738739	1525.952148	6024.302246	2627.685791	24.491949
303.108246	1529.922119	5926.270020	2608.057373	24.523430
303.477692	1530.363159	5852.166504	2595.155518	24.637688
303.847137	1526.724121	5775.858398	2587.326172	24.960426
304.216553	1530.363037	5724.691406	2573.652344	24.873812
304.585876	1531.465820	5688.742188	2563.396729	24.822283
304.955231	1535.215088	5666.687988	2559.978271	24.803823
305.324493	1534.443115	5638.126953	2556.890381	24.915354
305.693787	1530.252686	5612.212891	2552.148682	25.034443
306.063049	1530.032227	5607.581055	2553.692627	25.104797
306.432251	1528.708740	5606.588379	2556.669922	25.208227
306.801422	1529.260132	5598.097656	2555.677246	25.226299
307.170593	1532.568481	5595.450684	2557.441650	25.225273
307.539673	1528.819092	5608.573730	2560.639648	25.291241
307.908783	1531.575928	5615.080078	2564.830078	25.303125
308.277832	1531.355347	5644.522949	2568.027832	25.203751
308.646851	1534.773926	5681.133301	2574.534180	25.076462
309.015839	1536.207520	5715.649414	2581.150391	25.001972
309.384796	1538.082153	5746.415039	2589.090332	24.974453
309.753723	1535.766357	5771.998047	2594.824463	25.000006
310.122620	1533.891724	5793.611816	2602.764160	25.092550
310.491486	1532.899292	5812.357422	2608.829102	25.141731
310.860352	1530.914307	5821.179199	2613.791016	25.240324
311.229126	1534.332886	5826.031250	2613.129883	25.136833
311.597931	1529.701416	5843.123535	2613.901855	25.135506
311.966675	1526.613892	5869.699219	2618.312744	25.136480
312.335388	1526.834351	5896.274414	2621.400146	25.050482
312.704071	1522.974854	5922.739746	2624.377686	25.033222
313.072723	1524.959717	5931.230957	2624.708252	24.958710
313.441345	1523.526245	5931.341309	2622.833496	24.939959
313.809875	1523.195313	5911.823242	2614.342529	24.863060
314.178436	1523.195190	5885.688477	2606.512939	24.832537
314.546967	1521.982178	5851.614258	2603.425293	24.977715
314.915466	1519.446045	5811.254883	2596.809082	25.102774
315.283936	1523.967163	5773.100586	2591.405518	25.121319
315.652374	1523.195557	5733.402344	2586.663818	25.259287
316.020752	1523.416016	5692.822266	2582.252686	25.395382
316.389130	1525.842041	5654.116699	2575.746826	25.432049
316.757416	1525.621460	5628.202637	2567.145752	25.387051
