Jaz Data File
++++++++++++++++++++++++++++++++++++
Date: Fri Jun 21 02:31:13 2019
User: jaz
Dark Spectrum Present: Yes
Reference Spectrum Present: Yes
Processed Spectrum Present: Yes
Spectrometers: JAZA3541
Integration Time (usec): 119000 (JAZA3541)
Spectra Averaged: 1 (JAZA3541)
Boxcar Smoothing: 10 (JAZA3541)
Correct for Electrical Dark: No (JAZA3541)
Strobe/Lamp Enabled: Yes (JAZA3541)
Correct for Detector Non-linearity: No (JAZA3541)
Correct for Stray Light: No (JAZA3541)
Number of Pixels in Processed Spectrum: 2048
>>>>>Begin Processed Spectral Data<<<<<
W	D	R	S	P
190.543274	0.000000	0.000000	0.000000	0.000000
190.921555	0.000000	0.000000	0.000000	0.000000
191.299805	1558.482544	1405.644653	1715.951782	-103.030235
191.678024	1533.009521	1440.380615	1711.320313	-192.500153
192.056229	1539.956665	1535.325317	1741.424683	-4350.094727
192.434387	1519.115234	1551.535278	1787.739258	828.573914
192.812531	1604.796997	1597.849854	1750.687622	-2100.008789
193.190659	1556.166748	1542.272461	1748.371948	-1383.339722
193.568741	1623.322754	1530.693848	1766.897705	-155.000153
193.946793	0.000000	0.000000	0.000000	0.000000
194.324829	1410.165894	1403.770142	1593.769775	-2870.716064
194.702835	1483.938232	1477.322021	1675.481812	-2895.064697
195.080811	1555.725708	1551.645752	1758.847900	-4978.538574
195.458755	1552.307251	1560.467407	1759.840210	2543.247314
195.836685	1553.520386	1565.540039	1763.699829	1748.631470
196.214569	1554.953857	1568.627808	1762.266357	1516.112793
196.592422	1551.425171	1571.164063	1759.178345	1052.506836
196.970261	1549.219727	1570.833130	1757.414307	963.266052
197.348068	1548.999146	1571.274170	1758.186157	939.110107
197.725861	1545.690796	1573.810425	1756.201050	748.623840
198.103622	1539.625854	1573.589844	1750.136108	619.804260
198.481323	1540.287598	1569.399536	1746.938232	709.848389
198.859039	1539.846436	1568.958374	1743.740356	700.379089
199.236694	1536.758789	1568.296631	1741.645264	649.652832
199.614334	1539.295166	1566.201660	1742.196777	754.099060
199.991959	1540.728760	1571.604858	1742.307129	652.862183
200.369553	1537.751465	1570.502075	1742.417236	624.921997
200.747101	1536.759033	1571.935669	1744.512451	590.600586
201.124619	1535.215210	1570.502197	1745.394531	595.628418
201.502136	1531.796631	1571.274048	1743.409546	536.035339
201.879623	1529.922119	1568.517334	1747.379272	563.430359
202.257065	1525.621216	1569.730225	1747.820557	503.750488
202.634476	1525.621216	1573.589600	1747.489624	462.530518
203.011871	1524.187744	1573.258911	1750.467041	461.124756
203.389221	1524.408203	1571.715088	1747.600098	471.795807
203.766571	1523.415649	1570.722656	1743.740479	465.734039
204.143875	1523.305542	1567.635010	1743.850830	497.513947
204.521164	1526.613770	1564.878296	1742.637695	564.554016
204.898392	1524.408203	1563.444702	1744.291870	563.277100
205.275620	1523.856812	1563.665405	1742.527588	549.305481
205.652817	1524.297852	1562.783081	1744.732910	572.778320
206.029984	1529.370483	1566.422241	1748.923218	592.556885
206.407135	1528.378052	1568.848267	1750.797852	549.588867
206.784225	1530.473389	1569.950928	1751.900635	560.894226
207.161301	1530.252808	1570.281616	1752.782959	555.924988
207.538376	1528.929443	1571.274170	1750.797852	523.957581
207.915405	1529.260376	1568.517456	1750.136108	562.639221
208.292404	1529.480835	1568.737671	1748.261475	557.305847
208.669373	1525.952148	1570.833008	1746.827881	492.137939
209.046310	1524.628784	1571.053589	1746.166260	477.196350
209.423218	1528.267822	1569.509644	1746.056030	528.076111
209.800095	1530.032227	1570.612549	1742.196411	522.825256
210.176956	1530.032227	1570.833130	1736.241943	505.404785
210.553787	1531.686279	1566.201660	1737.124268	595.207092
210.930603	1535.435425	1566.091553	1731.059204	638.122925
211.307358	1536.648438	1565.760620	1733.815796	677.267517
211.684113	1538.412842	1570.391968	1735.359741	615.860779
212.060837	1534.773804	1573.920776	1734.808594	510.984070
212.437531	1533.340210	1574.802856	1736.793579	490.690735
212.814178	1532.458130	1578.772705	1735.029053	437.380493
213.190826	1532.788940	1580.426758	1738.888550	432.638641
213.567413	1530.914307	1580.095947	1739.770630	424.663177
213.943985	1528.267822	1576.015869	1739.439941	442.263367
214.320541	1528.488281	1577.669800	1736.241943	422.422211
214.697052	1527.716431	1577.228760	1737.565063	423.831055
215.073563	1529.591064	1581.198486	1738.778320	405.343353
215.449997	1529.921875	1582.852661	1740.763184	398.333984
215.826431	1528.708862	1588.586670	1740.983643	354.513275
216.202850	1529.370483	1590.792236	1743.960938	349.372070
216.579224	1533.119751	1588.807495	1746.607300	383.365417
216.955582	1533.560791	1588.586914	1745.173950	384.568542
217.331894	1531.135010	1586.932861	1745.835571	384.782837
217.708191	1532.017090	1588.035400	1747.599854	384.843384
218.084442	1537.420532	1591.674438	1753.775146	398.781647
218.460678	1534.443115	1598.180420	1753.444336	343.599762
218.836899	1532.678711	1603.694214	1758.627197	318.167847
219.213074	1532.127563	1606.892090	1761.163452	306.342987
219.589233	1531.024658	1605.348389	1762.707275	311.720917
219.965347	1533.891846	1609.869385	1765.353760	304.645172
220.341431	1535.987061	1615.713867	1767.007813	289.765472
220.717499	1535.435669	1614.721558	1769.654419	295.410400
221.093552	1534.002075	1619.242554	1765.464111	271.540039
221.469543	1535.104858	1625.197510	1765.243652	255.446793
221.845535	1536.207642	1630.380249	1765.574463	243.560013
222.221466	1537.310303	1634.350098	1769.434204	239.204849
222.597397	1535.435547	1642.069214	1769.544312	219.544891
222.973297	1537.420532	1647.362183	1768.551758	210.230820
223.349167	1536.979492	1655.853271	1767.118286	193.599289
223.725006	1537.530640	1662.359375	1767.449219	184.187225
224.100800	1538.082153	1671.952881	1766.567017	170.675751
224.476578	1538.854004	1682.097900	1762.707397	156.274292
224.852325	1537.971680	1701.726563	1763.479126	137.710358
225.228058	1541.279907	1724.332397	1764.030518	121.686745
225.603760	1540.838867	1750.246460	1766.897461	107.951477
225.979416	1536.317749	1779.248169	1765.574585	94.371399
226.355057	1535.325195	1813.322388	1770.426758	84.569763
226.730652	1533.671143	1852.028076	1769.544434	74.090828
227.106232	1534.773926	1886.543335	1770.978027	67.147423
227.481796	1531.575928	1920.286865	1770.426514	61.446838
227.857315	1528.378052	1946.972900	1775.057861	58.930447
228.232788	1528.819214	1971.673950	1775.829834	55.776894
228.608246	1531.465698	1999.903687	1775.719482	52.142181
228.983704	1534.112305	2022.950684	1779.579102	50.214306
229.359100	1531.575928	2040.263428	1780.571411	48.948616
229.734482	1528.378052	2061.546143	1782.446045	47.652512
230.109833	1529.039795	2075.881592	1784.320557	46.682747
230.485153	1528.488403	2087.349609	1783.438599	45.619591
230.860443	1521.541260	2101.575195	1783.769531	45.209126
231.235703	1520.879517	2121.534668	1785.974854	44.134365
231.610931	1519.225464	2137.523926	1789.062500	43.641872
231.986145	1517.240479	2152.079834	1796.340576	43.963894
232.361313	1516.468506	2165.532959	1802.736206	44.104664
232.736465	1519.115112	2169.833984	1805.493164	44.009491
233.111572	1517.571289	2172.921387	1808.029419	44.321064
233.486664	1518.894653	2171.708252	1806.485474	44.054050
233.861725	1517.350586	2169.944092	1808.249756	44.575859
234.236755	1520.107422	2156.931885	1805.272461	44.779221
234.611771	1522.313110	2138.516357	1808.139648	46.385109
234.986740	1523.415771	2132.671875	1808.691040	46.823540
235.361679	1526.062256	2128.922607	1811.778687	47.393467
235.736588	1526.393188	2124.952881	1811.447754	47.623413
236.111496	1527.936890	2122.196045	1812.440063	47.875271
236.486343	1528.819092	2122.857666	1816.740845	48.468529
236.861160	1527.716309	2128.371582	1818.946289	48.485378
237.235962	1529.370483	2138.626465	1823.136719	48.217209
237.610733	1532.016968	2152.962158	1825.893433	47.327278
237.985474	1532.016968	2177.111572	1829.863281	46.170952
238.360199	1533.009521	2207.988037	1836.148804	44.910954
238.734879	1534.994385	2240.628662	1843.316406	43.694309
239.109543	1532.347900	2281.539551	1850.153442	42.419792
239.484177	1533.450562	2334.360352	1854.564331	40.093624
239.858749	1535.325195	2397.105469	1861.621826	37.863091
240.233322	1530.804199	2464.923096	1866.032715	35.887135
240.607864	1528.709106	2528.660889	1868.789429	34.009670
240.982391	1529.370728	2583.025391	1874.634155	32.768177
241.356857	1527.826904	2627.685547	1877.942383	31.832771
241.731308	1533.340454	2665.288574	1882.684204	30.862169
242.105728	1529.150024	2699.583252	1890.623657	30.883747
242.480118	1528.708984	2736.414307	1893.490479	30.204512
242.854492	1529.480957	2770.378418	1896.137085	29.547657
243.228836	1527.606323	2818.898193	1901.981567	28.992302
243.603134	1531.245361	2883.187256	1911.906006	28.156584
243.977402	1529.150146	2971.956787	1924.697754	27.415150
244.351654	1526.724121	3079.692871	1938.151001	26.492928
244.725861	1527.495972	3195.809814	1952.155640	25.454424
245.100067	1529.260376	3309.391113	1963.624023	24.400660
245.474213	1530.693970	3406.872070	1976.636108	23.768646
245.848343	1529.150146	3476.453857	1986.670898	23.495090
246.222443	1528.378174	3532.362061	1993.067017	23.188253
246.596512	1530.252808	3565.884766	1997.147095	22.936085
246.970566	1530.804077	3581.543457	1995.823853	22.675714
247.344574	1531.134888	3573.714355	1997.588135	22.836479
247.718567	1528.157471	3552.431641	1992.184692	22.923141
248.092529	1533.561035	3529.936035	1993.397705	23.033583
248.466431	1533.891724	3510.307617	1998.580566	23.511694
248.840332	1534.002197	3506.668945	1995.933960	23.416615
249.214203	1533.891846	3516.923828	2003.983765	23.705715
249.588043	1529.811768	3538.868408	2006.409790	23.722479
249.961838	1525.952148	3566.656982	2012.254517	23.830118
250.335617	1524.629028	3592.460938	2017.106445	23.816122
250.709381	1522.423584	3603.377930	2020.524536	23.936178
251.083084	1521.320801	3591.468262	2019.421875	24.061140
251.456787	1521.982422	3561.474365	2014.239258	24.136248
251.830460	1521.762085	3509.425293	2006.409790	24.382788
252.204071	1522.203125	3429.367188	1994.059204	24.741241
252.577667	1521.761963	3337.069092	1984.465576	25.488998
252.951248	1521.541260	3250.725830	1975.533447	26.254698
253.324799	1517.020142	3177.835449	1962.851929	26.844152
253.698303	1516.248169	3130.969482	1956.345825	27.255333
254.071793	1518.233032	3092.374268	1953.920044	27.677759
254.445236	1520.769287	3078.479736	1952.376099	27.707769
254.818665	1521.541260	3072.855957	1956.566406	28.042353
255.192062	1521.320801	3089.396729	1955.794434	27.707436
255.565430	1525.511108	3120.272949	1959.433350	27.209219
255.938782	1522.092651	3155.891113	1962.410767	26.950577
256.312103	1523.636475	3214.445801	1971.122192	26.465771
256.685364	1522.202881	3288.438721	1985.568115	26.234619
257.058594	1520.107666	3374.341064	1992.515015	25.477232
257.431793	1523.195435	3472.593750	2006.520142	24.793533
257.804993	1527.716431	3583.969238	2021.627441	24.019955
258.178162	1529.150024	3682.222412	2033.205933	23.411007
258.551270	1530.032227	3768.455322	2044.343750	22.976511
258.924377	1529.370483	3840.132080	2053.826904	22.696257
259.297485	1525.290405	3899.569580	2060.994873	22.562824
259.670502	1529.149780	3942.906982	2067.941895	22.321718
260.043518	1533.891602	3992.750732	2078.307617	22.141001
260.416473	1530.362793	4040.167725	2082.498047	21.999130
260.789459	1527.606079	4078.542725	2085.916504	21.886488
261.162354	1530.803955	4110.521484	2096.612793	21.932976
261.535278	1529.149902	4134.229980	2104.883057	22.100401
261.908142	1529.370483	4159.372070	2104.000732	21.849047
262.280975	1526.613647	4174.479004	2102.898193	21.764120
262.653717	1530.583374	4190.909668	2104.662598	21.579279
263.026520	1530.914307	4200.062012	2111.940674	21.768236
263.399261	1525.952148	4207.781250	2114.146240	21.932571
263.771973	1526.834351	4219.911133	2113.594727	21.787733
264.144653	1523.084961	4213.735840	2109.073486	21.778690
264.517334	1525.290405	4186.388184	2103.229248	21.718061
264.889954	1525.952148	4137.316406	2095.951172	21.827633
265.262543	1526.393188	4074.020508	2090.437500	22.139984
265.635071	1529.480835	3996.830078	2078.748779	22.261459
266.007599	1528.047363	3930.997070	2069.485596	22.532232
266.380127	1524.408325	3887.770752	2069.265137	23.054308
266.752594	1526.503418	3869.796143	2071.911377	23.275280
267.125031	1525.952148	3869.355225	2069.375488	23.189495
267.497437	1520.879517	3888.873535	2070.478271	23.209465
267.869843	1518.674072	3911.148438	2069.265137	23.013456
268.242218	1521.430908	3946.104980	2077.425293	22.930685
268.614532	1521.872070	4017.010498	2088.452393	22.707371
268.986816	1519.004883	4098.060547	2095.840820	22.366169
269.359100	1521.871948	4188.152832	2099.038574	21.646881
269.731354	1522.092407	4275.819824	2109.294189	21.323889
270.103516	1523.084961	4346.615234	2124.180908	21.288809
270.475708	1518.784424	4407.816406	2129.253418	21.130573
270.847839	1522.092529	4464.496094	2130.355957	20.672331
271.219971	1526.944702	4510.920898	2136.531494	20.428675
271.592041	1529.921875	4535.180664	2139.288086	20.276663
271.964081	1532.237671	4553.485840	2138.847168	20.078110
272.336151	1532.237671	4574.547852	2142.155273	20.047846
272.708130	1531.686279	4593.956055	2145.022461	20.028811
273.080109	1530.804077	4614.908203	2147.779297	20.005007
273.452026	1530.252686	4644.680664	2149.322998	19.877497
273.823914	1533.560913	4678.535156	2158.585938	19.873774
274.195770	1535.435425	4714.483887	2161.453125	19.691984
274.567627	1536.979126	4748.447754	2161.563477	19.448557
274.939423	1537.420288	4784.065918	2172.811279	19.570692
275.311249	1538.853882	4807.002441	2175.457764	19.479038
275.682983	1536.979370	4827.954590	2177.773193	19.471245
276.054688	1534.443115	4832.806641	2178.986328	19.541304
276.426422	1536.648560	4815.052734	2177.993896	19.562729
276.798065	1537.530640	4785.389648	2173.141846	19.570160
277.169708	1537.199951	4757.159668	2173.251953	19.753414
277.541321	1539.515625	4739.075195	2177.111572	19.927616
277.912903	1539.074585	4743.375977	2173.362305	19.794884
278.284424	1539.736206	4756.277344	2179.427246	19.887545
278.655945	1535.656250	4777.670410	2187.036133	20.091827
279.027435	1538.523315	4811.523926	2194.313965	20.036375
279.398865	1537.971924	4872.173828	2207.657227	20.085325
279.770294	1538.412964	4936.683105	2220.889893	20.083069
280.141663	1538.082275	4996.009766	2231.145264	20.042728
280.513031	1541.500610	5055.887695	2240.298096	19.883907
280.884369	1538.523193	5092.829102	2242.393311	19.803307
281.255676	1540.177368	5132.637207	2248.568359	19.718828
281.626953	1538.412964	5166.601074	2252.538330	19.682701
281.998199	1539.736206	5202.770996	2257.390381	19.591793
282.369385	1540.508057	5250.519043	2260.698486	19.412083
282.740540	1542.603271	5308.743164	2261.249756	19.081779
283.111694	1540.397827	5362.334961	2271.946045	19.140772
283.482819	1541.059326	5430.263184	2290.251221	19.263374
283.853912	1542.382813	5511.203613	2303.373779	19.174234
284.224945	1538.743774	5583.652832	2312.195557	19.121611
284.595978	1542.272461	5653.455566	2325.538574	19.052086
284.966980	1541.941650	5715.318359	2336.896729	19.048244
285.337952	1537.861450	5756.670410	2341.969238	19.060066
285.708893	1539.405273	5777.953613	2350.129395	19.127401
286.079803	1540.949097	5798.574219	2352.665771	19.065010
286.450684	1543.154785	5811.917480	2355.312256	19.025595
286.821533	1537.861572	5818.423340	2355.422607	19.099388
287.192322	1536.097412	5819.305176	2353.106934	19.074711
287.563110	1538.082275	5831.985840	2353.878662	18.998947
287.933868	1538.854126	5849.850098	2358.730713	19.018263
288.304596	1538.523315	5884.034668	2370.088867	19.136196
288.675262	1538.743896	5930.018555	2384.975342	19.270748
289.045929	1537.641113	5962.328613	2395.120605	19.379436
289.416565	1536.869141	5990.999023	2397.436279	19.320656
289.787170	1538.302734	5998.938477	2401.626709	19.354280
290.157745	1535.545898	6001.916016	2407.140137	19.514599
290.528259	1536.317749	5993.204102	2417.285156	19.766432
290.898773	1539.736084	6004.672852	2418.608643	19.683876
291.269226	1537.751221	6002.908691	2420.813965	19.776745
291.639679	1538.192261	5995.741211	2422.468262	19.837719
292.010101	1540.397827	6016.803223	2427.320068	19.813269
292.380463	1537.199829	6050.877441	2435.370117	19.898857
292.750824	1539.625854	6085.503418	2443.750977	19.888903
293.121155	1537.640869	6131.597168	2455.770996	19.985609
293.491455	1534.884155	6201.399414	2466.026123	19.953690
293.861725	1532.458130	6279.141602	2478.045654	19.921015
294.231964	1532.458130	6366.808594	2495.137939	19.913322
294.602142	1535.766235	6463.296875	2513.994629	19.852304
294.972321	1533.009399	6543.686035	2531.197021	19.921213
295.342468	1527.716309	6605.217773	2544.540039	20.026064
295.712555	1525.731445	6647.011230	2557.221191	20.141249
296.082672	1529.370483	6671.602051	2558.434326	20.012009
296.452728	1529.811523	6675.351074	2559.205811	20.005566
296.822693	1528.378052	6675.020020	2561.301270	20.069847
297.192657	1527.495850	6668.844727	2572.438477	20.324291
297.562622	1525.510986	6691.009766	2576.077637	20.338144
297.932556	1531.355469	6707.330566	2581.591553	20.290594
298.302460	1530.693848	6710.307129	2581.040283	20.278473
298.672333	1529.260376	6708.653320	2586.223145	20.407078
299.042145	1529.260376	6706.778809	2584.789551	20.386778
299.411957	1527.716553	6705.897461	2583.466553	20.388435
299.781677	1527.716553	6663.441406	2578.283447	20.456060
300.151428	1527.496094	6619.552734	2572.549561	20.523211
300.521149	1524.629028	6556.917969	2561.411621	20.602604
300.890839	1525.842041	6491.747559	2547.627441	20.576015
301.260468	1526.503662	6415.769531	2537.592773	20.679775
301.630096	1525.621338	6328.434570	2528.880859	20.888996
301.999695	1525.290527	6236.907715	2521.052002	21.134176
302.369232	1523.526245	6126.966309	2504.731201	21.314604
302.738739	1525.952148	6024.302246	2489.954834	21.430140
303.108246	1529.922119	5926.270020	2478.376221	21.573683
303.477692	1530.363159	5852.166504	2463.048584	21.580933
303.847137	1526.724121	5775.858398	2460.512451	21.975967
304.216553	1530.363037	5724.691406	2455.219238	22.050163
304.585876	1531.465820	5688.742188	2452.021484	22.143240
304.955231	1535.215088	5666.687988	2445.846191	22.041321
305.324493	1534.443115	5638.126953	2443.861328	22.161022
305.693787	1530.252686	5612.212891	2443.971436	22.384314
306.063049	1530.032227	5607.581055	2441.876221	22.362553
306.432251	1528.708740	5606.588379	2444.522461	22.458086
306.801422	1529.260132	5598.097656	2441.214355	22.413139
307.170593	1532.568481	5595.450684	2442.758301	22.402565
307.539673	1528.819092	5608.573730	2445.294434	22.463982
307.908783	1531.575928	5615.080078	2445.294434	22.375843
308.277832	1531.355347	5644.522949	2454.006104	22.431637
308.646851	1534.773926	5681.133301	2469.775146	22.549932
309.015839	1536.207520	5715.649414	2478.376221	22.542931
309.384796	1538.082153	5746.415039	2487.308105	22.555866
309.753723	1535.766357	5771.998047	2489.403564	22.511452
310.122620	1533.891724	5793.611816	2494.917480	22.560772
310.491486	1532.899292	5812.357422	2497.784424	22.546900
310.860352	1530.914307	5821.179199	2500.100098	22.590349
311.229126	1534.332886	5826.031250	2504.069824	22.595646
311.597931	1529.701416	5843.123535	2507.819092	22.676142
311.966675	1526.613892	5869.699219	2513.112305	22.714230
312.335388	1526.834351	5896.274414	2516.751221	22.655464
312.704071	1522.974854	5922.739746	2515.648438	22.561970
313.072723	1524.959717	5931.230957	2517.082275	22.516148
313.441345	1523.526245	5931.341309	2516.310303	22.523270
313.809875	1523.195313	5911.823242	2515.648438	22.614201
314.178436	1523.195190	5885.688477	2511.127441	22.646048
314.546967	1521.982178	5851.614258	2509.142334	22.800095
314.915466	1519.446045	5811.254883	2500.430908	22.857143
315.283936	1523.967163	5773.100586	2500.982422	22.993284
315.652374	1523.195557	5733.402344	2499.879395	23.198000
316.020752	1523.416016	5692.822266	2489.844727	23.179049
316.389130	1525.842041	5654.116699	2479.589355	23.102808
316.757416	1525.621460	5628.202637	2474.296387	23.123856
