Jaz Data File
++++++++++++++++++++++++++++++++++++
Date: Fri Jun 21 02:31:34 2019
User: jaz
Dark Spectrum Present: Yes
Reference Spectrum Present: Yes
Processed Spectrum Present: Yes
Spectrometers: JAZA3541
Integration Time (usec): 119000 (JAZA3541)
Spectra Averaged: 1 (JAZA3541)
Boxcar Smoothing: 10 (JAZA3541)
Correct for Electrical Dark: No (JAZA3541)
Strobe/Lamp Enabled: Yes (JAZA3541)
Correct for Detector Non-linearity: No (JAZA3541)
Correct for Stray Light: No (JAZA3541)
Number of Pixels in Processed Spectrum: 2048
>>>>>Begin Processed Spectral Data<<<<<
W	D	R	S	P
190.543274	0.000000	0.000000	0.000000	0.000000
190.921555	0.000000	0.000000	0.000000	0.000000
191.299805	1558.482544	1405.644653	1683.531616	-81.818108
191.678024	1533.009521	1440.380615	1792.370605	-280.000153
192.056229	1539.956665	1535.325317	1769.213379	-4950.107910
192.434387	1519.115234	1551.535278	1713.635986	600.001526
192.812531	1604.796997	1597.849854	1695.110229	-1300.005249
193.190659	1556.166748	1542.272461	1817.843628	-1883.341553
193.568741	1623.322754	1530.693848	1722.898926	-107.500107
193.946793	0.000000	0.000000	0.000000	0.000000
194.324829	1410.165894	1403.770142	1586.270996	-2753.469971
194.702835	1483.938232	1477.322021	1669.857666	-2810.059082
195.080811	1555.725708	1551.645752	1755.760010	-4902.854492
195.458755	1552.307251	1560.467407	1761.273682	2560.813965
195.836685	1553.520386	1565.540039	1760.281250	1720.189941
196.214569	1554.953857	1568.627808	1759.729858	1497.562866
196.592422	1551.425171	1571.164063	1763.258423	1073.177002
196.970261	1549.219727	1570.833130	1764.581787	996.428284
197.348068	1548.999146	1571.274170	1759.509277	945.050049
197.725861	1545.690796	1573.810425	1761.604492	767.839783
198.103622	1539.625854	1573.589844	1763.920410	660.389343
198.481323	1540.287598	1569.399536	1759.509277	753.030151
198.859039	1539.846436	1568.958374	1760.942871	759.469971
199.236694	1536.758789	1568.296631	1761.715088	713.290100
199.614334	1539.295166	1566.201660	1759.509521	818.443115
199.991959	1540.728760	1571.604858	1758.627197	705.718811
200.369553	1537.751465	1570.502075	1755.870483	665.999878
200.747101	1536.759033	1571.935669	1752.562256	613.484558
201.124619	1535.215210	1570.502197	1752.893188	616.878906
201.502136	1531.796631	1571.274048	1754.216309	563.409912
201.879623	1529.922119	1568.517334	1753.113647	578.288086
202.257065	1525.621216	1569.730225	1750.577393	510.000519
202.634476	1525.621216	1573.589600	1749.474365	466.668121
203.011871	1524.187744	1573.258911	1746.938110	453.933289
203.389221	1524.408203	1571.715088	1740.211670	456.177704
203.766571	1523.415649	1570.722656	1738.998657	455.710510
204.143875	1523.305542	1567.635010	1740.652710	490.299530
204.521164	1526.613770	1564.878296	1736.131470	547.550720
204.898392	1524.408203	1563.444702	1737.013794	544.632813
205.275620	1523.856812	1563.665405	1737.344727	536.286011
205.652817	1524.297852	1562.783081	1732.823486	541.832886
206.029984	1529.370483	1566.422241	1733.705688	551.485840
206.407135	1528.378052	1568.848267	1738.447388	519.071472
206.784225	1530.473389	1569.950928	1733.044067	513.128967
207.161301	1530.252808	1570.281616	1731.389893	502.480804
207.538376	1528.929443	1571.274170	1736.021362	489.061890
207.915405	1529.260376	1568.517456	1738.116577	532.021729
208.292404	1529.480835	1568.737671	1741.535156	540.171692
208.669373	1525.952148	1570.833008	1740.652954	478.379456
209.046310	1524.628784	1571.053589	1738.226929	460.094879
209.423218	1528.267822	1569.509644	1735.359985	502.141174
209.800095	1530.032227	1570.612549	1738.006348	512.499939
210.176956	1530.032227	1570.833130	1738.006470	509.729492
210.553787	1531.686279	1566.201660	1737.896240	597.443665
210.930603	1535.435425	1566.091553	1737.675415	659.704956
211.307358	1536.648438	1565.760620	1742.527344	707.191589
211.684113	1538.412842	1570.391968	1740.652588	632.411743
212.060837	1534.773804	1573.920776	1738.447144	520.278625
212.437531	1533.340210	1574.802856	1740.983398	500.795776
212.814178	1532.458130	1578.772705	1742.858276	454.284943
213.190826	1532.788940	1580.426758	1748.261719	452.314545
213.567413	1530.914307	1580.095947	1752.010986	449.551239
213.943985	1528.267822	1576.015869	1749.033813	462.356079
214.320541	1528.488281	1577.669800	1749.033813	448.431732
214.697052	1527.716431	1577.228760	1753.003540	455.012146
215.073563	1529.591064	1581.198486	1751.459595	429.915924
215.449997	1529.921875	1582.852661	1751.018799	417.709503
215.826431	1528.708862	1588.586670	1748.261475	366.667755
216.202850	1529.370483	1590.792236	1746.717651	353.860260
216.579224	1533.119751	1588.807495	1745.173950	380.791504
216.955582	1533.560791	1588.586914	1749.364258	392.183655
217.331894	1531.135010	1586.932861	1748.592407	389.723602
217.708191	1532.017090	1588.035400	1746.938477	383.662750
218.084442	1537.420532	1591.674438	1745.284424	383.131653
218.460678	1534.443115	1598.180420	1745.505005	331.143433
218.836899	1532.678711	1603.694214	1746.166504	300.621399
219.213074	1532.127563	1606.892090	1745.504883	285.399139
219.589233	1531.024658	1605.348389	1747.710205	291.542877
219.965347	1533.891846	1609.869385	1748.592651	282.584564
220.341431	1535.987061	1615.713867	1746.607666	264.177917
220.717499	1535.435669	1614.721558	1744.071655	263.143921
221.093552	1534.002075	1619.242554	1742.527710	244.632172
221.469543	1535.104858	1625.197510	1739.991089	227.417252
221.845535	1536.207642	1630.380249	1740.763184	217.213425
222.221466	1537.310303	1634.350098	1739.439941	208.295609
222.597397	1535.435547	1642.069214	1740.322144	192.140625
222.973297	1537.420532	1647.362183	1745.394775	189.167831
223.349167	1536.979492	1655.853271	1744.843384	174.861008
223.725006	1537.530640	1662.359375	1745.725464	166.784378
224.100800	1538.082153	1671.952881	1743.299316	153.295029
224.476578	1538.854004	1682.097900	1747.489990	145.650879
224.852325	1537.971680	1701.726563	1746.497192	127.340027
225.228058	1541.279907	1724.332397	1747.489624	112.650597
225.603760	1540.838867	1750.246460	1750.025879	99.894661
225.979416	1536.317749	1779.248169	1755.208740	90.104401
226.355057	1535.325195	1813.322388	1762.266357	81.634338
226.730652	1533.671143	1852.028076	1763.589478	72.220299
227.106232	1534.773926	1886.543335	1770.206055	66.927971
227.481796	1531.575928	1920.286865	1774.286133	62.439766
227.857315	1528.378052	1946.972900	1775.829956	59.114895
228.232788	1528.819214	1971.673950	1780.020264	56.723125
228.608246	1531.465698	1999.903687	1781.233276	53.319241
228.983704	1534.112305	2022.950684	1780.902588	50.485046
229.359100	1531.575928	2040.263428	1788.401001	50.487789
229.734482	1528.378052	2061.546143	1789.172852	48.914181
230.109833	1529.039795	2075.881592	1787.739258	47.307919
230.485153	1528.488403	2087.349609	1786.084961	46.093117
230.860443	1521.541260	2101.575195	1788.511108	46.026592
231.235703	1520.879517	2121.534668	1788.511108	44.556614
231.610931	1519.225464	2137.523926	1790.826660	43.927200
231.986145	1517.240479	2152.079834	1796.340210	43.963837
232.361313	1516.468506	2165.532959	1795.237671	42.949383
232.736465	1519.115112	2169.833984	1796.891968	42.687691
233.111572	1517.571289	2172.921387	1800.751099	43.210464
233.486664	1518.894653	2171.708252	1800.310059	43.108078
233.861725	1517.350586	2169.944092	1802.074585	43.629608
234.236755	1520.107422	2156.931885	1794.465820	43.082264
234.611771	1522.313110	2138.516357	1794.796631	44.219749
234.986740	1523.415771	2132.671875	1790.165161	43.782803
235.361679	1526.062256	2128.922607	1790.495850	43.863159
235.736588	1526.393188	2124.952881	1789.282959	43.920395
236.111496	1527.936890	2122.196045	1790.495850	44.182568
236.486343	1528.819092	2122.857666	1792.701294	44.421730
236.861160	1527.716309	2128.371582	1792.811523	44.134335
237.235962	1529.370483	2138.626465	1791.047485	42.950256
237.610733	1532.016968	2152.962158	1795.568604	42.443623
237.985474	1532.016968	2177.111572	1801.854004	41.829063
238.360199	1533.009521	2207.988037	1809.573242	40.973709
238.734879	1534.994385	2240.628662	1809.573242	38.912346
239.109543	1532.347900	2281.539551	1813.212280	37.488991
239.484177	1533.450562	2334.360352	1819.718140	35.742798
239.858749	1535.325195	2397.105469	1824.680420	33.576450
240.233322	1530.804199	2464.923096	1836.038452	32.676167
240.607864	1528.709106	2528.660889	1843.536987	31.484306
240.982391	1529.370728	2583.025391	1846.624634	30.109856
241.356857	1527.826904	2627.685547	1851.145874	29.396412
241.731308	1533.340454	2665.288574	1853.461670	28.280556
242.105728	1529.150024	2699.583252	1863.275879	28.547195
242.480118	1528.708984	2736.414307	1867.356079	28.040541
242.854492	1529.480957	2770.378418	1872.428589	27.637064
243.228836	1527.606323	2818.898193	1875.295532	26.925688
243.603134	1531.245361	2883.187256	1883.896973	26.084820
243.977402	1529.150146	2971.956787	1891.505737	25.114634
244.351654	1526.724121	3079.692871	1900.989014	24.099962
244.725861	1527.495972	3195.809814	1912.898682	23.101332
245.100067	1529.260376	3309.391113	1920.838135	21.997135
245.474213	1530.693970	3406.872070	1930.762817	21.323606
245.848343	1529.150146	3476.453857	1940.687134	21.133682
246.222443	1528.378174	3532.362061	1944.657227	20.772575
246.596512	1530.252808	3565.884766	1949.178223	20.579624
246.970566	1530.804077	3581.543457	1953.699585	20.621613
247.344574	1531.134888	3573.714355	1951.053223	20.558237
247.718567	1528.157471	3552.431641	1950.611938	20.869429
248.092529	1533.561035	3529.936035	1946.090820	20.663942
248.466431	1533.891724	3510.307617	1945.428955	20.822401
248.840332	1534.002197	3506.668945	1942.120850	20.688677
249.214203	1533.891846	3516.923828	1946.531860	20.808540
249.588043	1529.811768	3538.868408	1947.744751	20.802448
249.961838	1525.952148	3566.656982	1948.075684	20.685183
250.335617	1524.629028	3592.460938	1949.068115	20.525801
250.709381	1522.423584	3603.377930	1950.060669	20.550047
251.083084	1521.320801	3591.468262	1947.414307	20.582762
251.456787	1521.982422	3561.474365	1940.467041	20.519062
251.830460	1521.762085	3509.425293	1934.953491	20.787798
252.204071	1522.203125	3429.367188	1928.116455	21.283607
252.577667	1521.761963	3337.069092	1922.712769	22.087215
252.951248	1521.541260	3250.725830	1917.860718	22.919443
253.324799	1517.020142	3177.835449	1912.126465	23.789902
253.698303	1516.248169	3130.969482	1905.951294	24.134390
254.071793	1518.233032	3092.374268	1901.319702	24.336233
254.445236	1520.769287	3078.479736	1902.532959	24.507999
254.818665	1521.541260	3072.855957	1901.650635	24.502403
255.192062	1521.320801	3089.396729	1908.156982	24.669479
255.565430	1525.511108	3120.272949	1909.369751	24.069967
255.938782	1522.092651	3155.891113	1911.685425	23.845829
256.312103	1523.636475	3214.445801	1918.412231	23.348331
256.685364	1522.202881	3288.438721	1927.895874	22.969357
257.058594	1520.107666	3374.341064	1941.348999	22.717815
257.431793	1523.195435	3472.593750	1953.809692	22.089598
257.804993	1527.716431	3583.969238	1963.513794	21.193762
258.178162	1529.150024	3682.222412	1973.107544	20.619722
258.551270	1530.032227	3768.455322	1981.488281	20.168486
258.924377	1529.370483	3840.132080	1988.766235	19.880707
259.297485	1525.290405	3899.569580	2000.234619	20.003721
259.670502	1529.149780	3942.906982	2003.763184	19.662848
260.043518	1533.891602	3992.750732	2009.387085	19.338053
260.416473	1530.362793	4040.167725	2010.600098	19.134447
260.789459	1527.606079	4078.542725	2018.539429	19.245220
261.162354	1530.803955	4110.521484	2020.524414	18.983492
261.535278	1529.149902	4134.229980	2021.516968	18.900267
261.908142	1529.370483	4159.372070	2020.303955	18.666662
262.280975	1526.613647	4174.479004	2018.098633	18.561556
262.653717	1530.583374	4190.909668	2020.634888	18.420731
263.026520	1530.914307	4200.062012	2017.767822	18.240036
263.399261	1525.952148	4207.781250	2017.106079	18.314140
263.771973	1526.834351	4219.911133	2019.973267	18.311357
264.144653	1523.084961	4213.735840	2020.303955	18.479506
264.517334	1525.290405	4186.388184	2021.186401	18.635017
264.889954	1525.952148	4137.316406	2008.615112	18.483173
265.262543	1526.393188	4074.020508	1997.146606	18.478111
265.635071	1529.480835	3996.830078	1989.978760	18.663671
266.007599	1528.047363	3930.997070	1985.016602	19.017012
266.380127	1524.408325	3887.770752	1979.613281	19.260904
266.752594	1526.503418	3869.796143	1978.510742	19.289410
267.125031	1525.952148	3869.355225	1976.856812	19.241447
267.497437	1520.879517	3888.873535	1979.944336	19.386230
267.869843	1518.674072	3911.148438	1982.811401	19.399887
268.242218	1521.430908	3946.104980	1990.971680	19.365108
268.614532	1521.872070	4017.010498	1995.933960	18.999422
268.986816	1519.004883	4098.060547	2006.189575	18.890041
269.359100	1521.871948	4188.152832	2015.341919	18.507803
269.731354	1522.092407	4275.819824	2025.817749	18.292490
270.103516	1523.084961	4346.615234	2031.992798	18.023813
270.475708	1518.784424	4407.816406	2035.190674	17.874716
270.847839	1522.092529	4464.496094	2038.829590	17.561733
271.219971	1526.944702	4510.920898	2045.225464	17.368797
271.592041	1529.921875	4535.180664	2042.909790	17.069675
271.964081	1532.237671	4553.485840	2044.233032	16.946486
272.336151	1532.237671	4574.547852	2043.240723	16.796547
272.708130	1531.686279	4593.956055	2043.130615	16.701479
273.080109	1530.804077	4614.908203	2046.218140	16.711954
273.452026	1530.252686	4644.680664	2047.872192	16.620050
273.823914	1533.560913	4678.535156	2050.188232	16.427076
274.195770	1535.435425	4714.483887	2054.488770	16.327318
274.567627	1536.979126	4748.447754	2057.355713	16.203695
274.939423	1537.420288	4784.065918	2062.207764	16.163990
275.311249	1538.853882	4807.002441	2067.169922	16.165607
275.682983	1536.979370	4827.954590	2068.052002	16.137243
276.054688	1534.443115	4832.806641	2068.934082	16.204731
276.426422	1536.648560	4815.052734	2066.066895	16.148659
276.798065	1537.530640	4785.389648	2064.082031	16.212261
277.169708	1537.199951	4757.159668	2060.663574	16.256838
277.541321	1539.515625	4739.075195	2060.663574	16.288115
277.912903	1539.074585	4743.375977	2061.656250	16.308756
278.284424	1539.736206	4756.277344	2066.728760	16.383829
278.655945	1535.656250	4777.670410	2071.250000	16.520401
279.027435	1538.523315	4811.523926	2077.535645	16.468447
279.398865	1537.971924	4872.173828	2091.319580	16.596106
279.770294	1538.412964	4936.683105	2094.958496	16.377319
280.141663	1538.082275	4996.009766	2101.685303	16.298868
280.513031	1541.500610	5055.887695	2110.396484	16.187626
280.884369	1538.523193	5092.829102	2118.998047	16.331594
281.255676	1540.177368	5132.637207	2124.842285	16.274778
281.626953	1538.412964	5166.601074	2130.245850	16.312078
281.998199	1539.736206	5202.770996	2133.554199	16.211094
282.369385	1540.508057	5250.519043	2140.611572	16.175249
282.740540	1542.603271	5308.743164	2151.418213	16.165489
283.111694	1540.397827	5362.334961	2156.601074	16.122799
283.482819	1541.059326	5430.263184	2168.841064	16.141651
283.853912	1542.382813	5511.203613	2173.803467	15.909528
284.224945	1538.743774	5583.652832	2182.735596	15.921045
284.595978	1542.272461	5653.455566	2186.926025	15.680488
284.966980	1541.941650	5715.318359	2193.101318	15.602704
285.337952	1537.861450	5756.670410	2195.306641	15.583668
285.708893	1539.405273	5777.953613	2201.151123	15.612558
286.079803	1540.949097	5798.574219	2204.128662	15.576280
286.450684	1543.154785	5811.917480	2208.980957	15.597638
286.821533	1537.861572	5818.423340	2210.414307	15.711787
287.192322	1536.097412	5819.305176	2210.193604	15.738114
287.563110	1538.082275	5831.985840	2217.250977	15.817047
287.933868	1538.854126	5849.850098	2223.095703	15.872006
288.304596	1538.523315	5884.034668	2230.263184	15.918492
288.675262	1538.743896	5930.018555	2235.115234	15.858069
289.045929	1537.641113	5962.328613	2241.400391	15.905288
289.416565	1536.869141	5990.999023	2243.826416	15.871950
289.787170	1538.302734	5998.938477	2251.435303	15.987241
290.157745	1535.545898	6001.916016	2253.420166	16.072880
290.528259	1536.317749	5993.204102	2252.207031	16.062544
290.898773	1539.736084	6004.672852	2259.154297	16.112619
291.269226	1537.751221	6002.908691	2257.500488	16.119236
291.639679	1538.192261	5995.741211	2260.257324	16.198702
292.010101	1540.397827	6016.803223	2261.801270	16.115686
292.380463	1537.199829	6050.877441	2269.409912	16.222029
292.750824	1539.625854	6085.503418	2272.718262	16.126534
293.121155	1537.640869	6131.597168	2282.422363	16.212204
293.491455	1534.884155	6201.399414	2287.494873	16.127895
293.861725	1532.458130	6279.141602	2299.734863	16.164480
294.231964	1532.458130	6366.808594	2312.305908	16.131386
294.602142	1535.766235	6463.296875	2320.466064	15.924809
294.972321	1533.009399	6543.686035	2328.626221	15.878430
295.342468	1527.716309	6605.217773	2334.139893	15.882292
295.712555	1525.731445	6647.011230	2340.756348	15.914477
296.082672	1529.370483	6671.602051	2343.402832	15.830333
296.452728	1529.811523	6675.351074	2342.520752	15.794441
296.822693	1528.378052	6675.020020	2342.630859	15.821050
297.192657	1527.495850	6668.844727	2343.513184	15.871659
297.562622	1525.510986	6691.009766	2342.520752	15.816667
297.932556	1531.355469	6707.330566	2344.615967	15.712218
298.302460	1530.693848	6710.307129	2345.167480	15.724603
298.672333	1529.260376	6708.653320	2339.984375	15.652877
299.042145	1529.260376	6706.778809	2340.756348	15.673453
299.411957	1527.716553	6705.897461	2336.896729	15.626727
299.781677	1527.716553	6663.441406	2336.124512	15.740874
300.151428	1527.496094	6619.552734	2329.839355	15.756763
300.521149	1524.629028	6556.917969	2328.185059	15.968002
300.890839	1525.842041	6491.747559	2321.348145	16.019358
301.260468	1526.503662	6415.769531	2316.495850	16.157686
301.630096	1525.621338	6328.434570	2303.925049	16.205162
301.999695	1525.290527	6236.907715	2291.243652	16.256693
302.369232	1523.526245	6126.966309	2283.855225	16.516539
302.738739	1525.952148	6024.302246	2275.695313	16.667070
303.108246	1529.922119	5926.270020	2265.329590	16.727692
303.477692	1530.363159	5852.166504	2254.523438	16.755976
303.847137	1526.724121	5775.858398	2249.119873	17.001011
304.216553	1530.363037	5724.691406	2242.834717	16.986551
304.585876	1531.465820	5688.742188	2241.290527	17.074272
304.955231	1535.215088	5666.687988	2241.069824	17.084822
305.324493	1534.443115	5638.126953	2243.495605	17.278440
305.693787	1530.252686	5612.212891	2243.826660	17.481159
306.063049	1530.032227	5607.581055	2243.165039	17.489252
306.432251	1528.708740	5606.588379	2245.039551	17.566257
306.801422	1529.260132	5598.097656	2247.245117	17.645948
307.170593	1532.568481	5595.450684	2250.553467	17.671814
307.539673	1528.819092	5608.573730	2252.648926	17.741995
307.908783	1531.575928	5615.080078	2255.074707	17.717596
308.277832	1531.355347	5644.522949	2262.021484	17.764074
308.646851	1534.773926	5681.133301	2266.101563	17.637825
309.015839	1536.207520	5715.649414	2270.733154	17.574730
309.384796	1538.082153	5746.415039	2278.011230	17.582474
309.753723	1535.766357	5771.998047	2280.326904	17.576012
310.122620	1533.891724	5793.611816	2284.517334	17.621477
310.491486	1532.899292	5812.357422	2286.061035	17.599466
310.860352	1530.914307	5821.179199	2293.228760	17.768471
311.229126	1534.332886	5826.031250	2297.639893	17.785664
311.597931	1529.701416	5843.123535	2299.183350	17.839247
311.966675	1526.613892	5869.699219	2310.321289	18.044945
312.335388	1526.834351	5896.274414	2311.864990	17.966391
312.704071	1522.974854	5922.739746	2321.237793	18.143311
313.072723	1524.959717	5931.230957	2316.275391	17.958849
313.441345	1523.526245	5931.341309	2313.077637	17.912535
313.809875	1523.195313	5911.823242	2310.982422	17.950647
314.178436	1523.195190	5885.688477	2303.263672	17.881254
314.546967	1521.982178	5851.614258	2297.750000	17.917639
314.915466	1519.446045	5811.254883	2294.662354	18.062695
315.283936	1523.967163	5773.100586	2287.825439	17.976803
315.652374	1523.195557	5733.402344	2283.414795	18.056576
316.020752	1523.416016	5692.822266	2276.798340	18.069296
316.389130	1525.842041	5654.116699	2273.931396	18.121115
316.757416	1525.621460	5628.202637	2270.071533	18.145895
