Jaz Data File
++++++++++++++++++++++++++++++++++++
Date: Fri Jun 21 02:23:47 2019
User: jaz
Dark Spectrum Present: Yes
Reference Spectrum Present: Yes
Processed Spectrum Present: Yes
Spectrometers: JAZA3541
Integration Time (usec): 119000 (JAZA3541)
Spectra Averaged: 1 (JAZA3541)
Boxcar Smoothing: 10 (JAZA3541)
Correct for Electrical Dark: No (JAZA3541)
Strobe/Lamp Enabled: Yes (JAZA3541)
Correct for Detector Non-linearity: No (JAZA3541)
Correct for Stray Light: No (JAZA3541)
Number of Pixels in Processed Spectrum: 2048
>>>>>Begin Processed Spectral Data<<<<<
W	D	R	S	P
190.543274	0.000000	0.000000	0.000000	0.000000
190.921555	0.000000	0.000000	0.000000	0.000000
191.299805	1558.482544	1405.644653	1572.376831	-9.090865
191.678024	1533.009521	1440.380615	1567.745361	-37.500000
192.056229	1539.956665	1535.325317	1593.218384	-1150.026367
192.434387	1519.115234	1551.535278	1632.585693	350.000946
192.812531	1604.796997	1597.849854	1665.005859	-866.670776
193.190659	1556.166748	1542.272461	1648.795776	-666.669861
193.568741	1623.322754	1530.693848	1627.954224	-5.000026
193.946793	0.000000	0.000000	0.000000	0.000000
194.324829	1410.165894	1403.770142	1476.108765	-1031.041748
194.702835	1483.938232	1477.322021	1556.938599	-1103.356079
195.080811	1555.725708	1551.645752	1634.239746	-1924.384399
195.458755	1552.307251	1560.467407	1637.658081	1045.946045
195.836685	1553.520386	1565.540039	1638.871094	710.092957
196.214569	1554.953857	1568.627808	1640.304688	624.185608
196.592422	1551.425171	1571.164063	1641.627930	456.979858
196.970261	1549.219727	1570.833130	1639.532715	417.856384
197.348068	1548.999146	1571.274170	1639.091675	404.455353
197.725861	1545.690796	1573.810425	1639.422607	333.332306
198.103622	1539.625854	1573.589844	1636.334961	284.740143
198.481323	1540.287598	1569.399536	1635.452759	326.893921
198.859039	1539.846436	1568.958374	1635.342407	328.030273
199.236694	1536.758789	1568.296631	1632.806152	304.546417
199.614334	1539.295166	1566.201660	1633.357544	349.589874
199.991959	1540.728760	1571.604858	1633.578369	300.716766
200.369553	1537.751465	1570.502075	1632.916504	290.574860
200.747101	1536.759033	1571.935669	1632.585571	272.415314
201.124619	1535.215210	1570.502197	1633.467773	278.438507
201.502136	1531.796631	1571.274048	1636.665771	265.643372
201.879623	1529.922119	1568.517334	1631.262451	262.572266
202.257065	1525.621216	1569.730225	1629.828857	236.250244
202.634476	1525.621216	1573.589600	1625.528442	208.277237
203.011871	1524.187744	1573.258911	1626.410522	208.315353
203.389221	1524.408203	1571.715088	1624.645996	211.888382
203.766571	1523.415649	1570.722656	1627.292603	219.580475
204.143875	1523.305542	1567.635010	1628.064575	236.319183
204.521164	1526.613770	1564.878296	1625.859009	259.366180
204.898392	1524.408203	1563.444702	1626.410400	261.299561
205.275620	1523.856812	1563.665405	1627.844116	261.218231
205.652817	1524.297852	1562.783081	1627.623535	268.481415
206.029984	1529.370483	1566.422241	1630.049316	271.724854
206.407135	1528.378052	1568.848267	1630.600830	252.587677
206.784225	1530.473389	1569.950928	1629.718750	251.397034
207.161301	1530.252808	1570.281616	1626.079590	239.394547
207.538376	1528.929443	1571.274170	1625.087036	227.082809
207.915405	1529.260376	1568.517456	1626.410522	247.471664
208.292404	1529.480835	1568.737671	1630.380249	257.023804
208.669373	1525.952148	1570.833008	1632.475464	237.346878
209.046310	1524.628784	1571.053589	1631.041992	229.216278
209.423218	1528.267822	1569.509644	1628.395508	242.781921
209.800095	1530.032227	1570.612549	1632.475464	252.445602
210.176956	1530.032227	1570.833130	1631.703491	249.188766
210.553787	1531.686279	1566.201660	1631.593140	289.456055
210.930603	1535.435425	1566.091553	1631.813599	314.384705
211.307358	1536.648438	1565.760620	1633.578125	332.952332
211.684113	1538.412842	1570.391968	1631.593140	291.378510
212.060837	1534.773804	1573.920776	1629.828857	242.815842
212.437531	1533.340210	1574.802856	1629.166992	231.115936
212.814178	1532.458130	1578.772705	1626.851563	203.809341
213.190826	1532.788940	1580.426758	1628.284912	200.462524
213.567413	1530.914307	1580.095947	1628.395264	198.205994
213.943985	1528.267822	1576.015869	1628.836548	210.623749
214.320541	1528.488281	1577.669800	1625.969360	198.206726
214.697052	1527.716431	1577.228760	1626.630981	199.777618
215.073563	1529.591064	1581.198486	1627.292603	189.316833
215.449997	1529.921875	1582.852661	1627.292603	183.958588
215.826431	1528.708862	1588.586670	1626.851563	163.904968
216.202850	1529.370483	1590.792236	1621.007080	149.192413
216.579224	1533.119751	1588.807495	1617.147461	150.890854
216.955582	1533.560791	1588.586914	1618.140015	153.707397
217.331894	1531.135010	1586.932861	1617.809326	155.336304
217.708191	1532.017090	1588.035400	1618.250244	153.937439
218.084442	1537.420532	1591.674438	1621.999634	155.894958
218.460678	1534.443115	1598.180420	1625.087280	142.215240
218.836899	1532.678711	1603.694214	1623.543335	127.950409
219.213074	1532.127563	1606.892090	1623.874268	122.714218
219.589233	1531.024658	1605.348389	1625.528320	127.151398
219.965347	1533.891846	1609.869385	1624.646240	119.448982
220.341431	1535.987061	1615.713867	1628.064575	115.491287
220.717499	1535.435669	1614.721558	1629.166992	118.219429
221.093552	1534.002075	1619.242554	1628.946777	111.384521
221.469543	1535.104858	1625.197510	1629.387817	104.651108
221.845535	1536.207642	1630.380249	1630.270142	99.883080
222.221466	1537.310303	1634.350098	1636.334961	102.045410
222.597397	1535.435547	1642.069214	1636.224731	94.519104
222.973297	1537.420532	1647.362183	1640.635620	93.881699
223.349167	1536.979492	1655.853271	1644.053711	90.073875
223.725006	1537.530640	1662.359375	1644.053955	85.335571
224.100800	1538.082153	1671.952881	1646.700317	81.136604
224.476578	1538.854004	1682.097900	1653.095947	79.753448
224.852325	1537.971680	1701.726563	1652.986084	70.235710
225.228058	1541.279907	1724.332397	1654.640015	61.927650
225.603760	1540.838867	1750.246460	1658.058350	55.976711
225.979416	1536.317749	1779.248169	1658.389282	50.249588
226.355057	1535.325195	1813.322388	1660.264160	44.942528
226.730652	1533.671143	1852.028076	1664.344360	41.046135
227.106232	1534.773926	1886.543335	1666.659790	37.492134
227.481796	1531.575928	1920.286865	1673.937866	36.624115
227.857315	1528.378052	1946.972900	1681.436401	36.564796
228.232788	1528.819214	1971.673950	1682.980225	34.810741
228.608246	1531.465698	1999.903687	1688.163086	33.451042
228.983704	1534.112305	2022.950684	1685.185669	30.904562
229.359100	1531.575928	2040.263428	1682.318481	29.633627
229.734482	1528.378052	2061.546143	1679.892456	28.417755
230.109833	1529.039795	2075.881592	1677.466553	27.142540
230.485153	1528.488403	2087.349609	1677.025513	26.578533
230.860443	1521.541260	2101.575195	1678.679443	27.091206
231.235703	1520.879517	2121.534668	1674.268555	25.536955
231.610931	1519.225464	2137.523926	1676.474121	25.432484
231.986145	1517.240479	2152.079834	1679.451660	25.551533
232.361313	1516.468506	2165.532959	1673.938110	24.261011
232.736465	1519.115112	2169.833984	1675.592285	24.046816
233.111572	1517.571289	2172.921387	1676.364014	24.230213
233.486664	1518.894653	2171.708252	1676.143433	24.087852
233.861725	1517.350586	2169.944092	1675.812744	24.281908
234.236755	1520.107422	2156.931885	1675.702515	24.432964
234.611771	1522.313110	2138.516357	1679.892700	25.572664
234.986740	1523.415771	2132.671875	1678.900146	25.520365
235.361679	1526.062256	2128.922607	1679.782227	25.498438
235.736588	1526.393188	2124.952881	1677.797607	25.294790
236.111496	1527.936890	2122.196045	1677.907715	25.236603
236.486343	1528.819092	2122.857666	1677.577026	25.041798
236.861160	1527.716309	2128.371582	1679.782593	25.316732
237.235962	1529.370483	2138.626465	1687.391357	25.936697
237.610733	1532.016968	2152.962158	1689.486450	25.359642
237.985474	1532.016968	2177.111572	1693.566650	25.042789
238.360199	1533.009521	2207.988037	1703.711670	25.290012
238.734879	1534.994385	2240.628662	1706.358032	24.285051
239.109543	1532.347900	2281.539551	1718.487915	24.845448
239.484177	1533.450562	2334.360352	1727.420044	24.218643
239.858749	1535.325195	2397.105469	1735.139160	23.186184
240.233322	1530.804199	2464.923096	1748.040894	23.255787
240.607864	1528.709106	2528.660889	1756.311401	22.761328
240.982391	1529.370728	2583.025391	1768.331055	22.679188
241.356857	1527.826904	2627.685547	1774.616577	22.438309
241.731308	1533.340454	2665.288574	1777.814575	21.597643
242.105728	1529.150024	2699.583252	1779.689209	21.405680
242.480118	1528.708984	2736.414307	1777.814575	20.626356
242.854492	1529.480957	2770.378418	1782.776733	20.412306
243.228836	1527.606323	2818.898193	1783.328369	19.803581
243.603134	1531.245361	2883.187256	1794.355469	19.461643
243.977402	1529.150146	2971.956787	1805.823608	19.176060
244.351654	1526.724121	3079.692871	1821.482544	18.980318
244.725861	1527.495972	3195.809814	1841.111084	18.798328
245.100067	1529.260376	3309.391113	1855.115723	18.305136
245.474213	1530.693970	3406.872070	1871.325928	18.155630
245.848343	1529.150146	3476.453857	1883.455933	18.194685
246.222443	1528.378174	3532.362061	1889.300415	18.010237
246.596512	1530.252808	3565.884766	1898.011963	18.066093
246.970566	1530.804077	3581.543457	1899.445313	17.976017
247.344574	1531.134888	3573.714355	1897.240112	17.923672
247.718567	1528.157471	3552.431641	1894.813843	18.112980
248.092529	1533.561035	3529.936035	1891.836548	17.946302
248.466431	1533.891724	3510.307617	1888.748901	17.954580
248.840332	1534.002197	3506.668945	1886.212646	17.854534
249.214203	1533.891846	3516.923828	1887.866821	17.850189
249.588043	1529.811768	3538.868408	1894.262695	18.140400
249.961838	1525.952148	3566.656982	1904.187134	18.534527
250.335617	1524.629028	3592.460938	1910.472656	18.659330
250.709381	1522.423584	3603.377930	1909.921265	18.621153
251.083084	1521.320801	3591.468262	1909.700684	18.760977
251.456787	1521.982422	3561.474365	1907.936401	18.924026
251.830460	1521.762085	3509.425293	1900.437866	19.051306
252.204071	1522.203125	3429.367188	1892.718750	19.427570
252.577667	1521.761963	3337.069092	1882.463745	19.870014
252.951248	1521.541260	3250.725830	1873.752075	20.368607
253.324799	1517.020142	3177.835449	1867.356201	21.094221
253.698303	1516.248169	3130.969482	1860.739746	21.334429
254.071793	1518.233032	3092.374268	1853.351318	21.288960
254.445236	1520.769287	3078.479736	1850.043213	21.138327
254.818665	1521.541260	3072.855957	1848.830200	21.097521
255.192062	1521.320801	3089.396729	1849.381470	20.921223
255.565430	1525.511108	3120.272949	1854.454102	20.626465
255.938782	1522.092651	3155.891113	1860.077881	20.687082
256.312103	1523.636475	3214.445801	1869.340942	20.446095
256.685364	1522.202881	3288.438721	1878.383179	20.166067
257.058594	1520.107666	3374.341064	1887.977173	19.839439
257.431793	1523.195435	3472.593750	1899.114380	19.283844
257.804993	1527.716431	3583.969238	1912.016357	18.689331
258.178162	1529.150024	3682.222412	1922.823120	18.284248
258.551270	1530.032227	3768.455322	1937.820068	18.217640
258.924377	1529.370483	3840.132080	1947.744751	18.105471
259.297485	1525.290405	3899.569580	1952.927490	18.011238
259.670502	1529.149780	3942.906982	1954.140381	17.607014
260.043518	1533.891602	3992.750732	1955.132813	17.131571
260.416473	1530.362793	4040.167725	1955.022705	16.920036
260.789459	1527.606079	4078.542725	1957.779541	16.863354
261.162354	1530.803955	4110.521484	1961.308228	16.688040
261.535278	1529.149902	4134.229980	1968.586182	16.868437
261.908142	1529.370483	4159.372070	1977.187500	17.027254
262.280975	1526.613647	4174.479004	1975.864258	16.966520
262.653717	1530.583374	4190.909668	1973.768921	16.659067
263.026520	1530.914307	4200.062012	1975.533325	16.657715
263.399261	1525.952148	4207.781250	1974.099854	16.710524
263.771973	1526.834351	4219.911133	1974.430786	16.620264
264.144653	1523.084961	4213.735840	1973.548706	16.741814
264.517334	1525.290405	4186.388184	1969.799316	16.703968
264.889954	1525.952148	4137.316406	1961.198120	16.667379
265.262543	1526.393188	4074.020508	1953.809692	16.777040
265.635071	1529.480835	3996.830078	1937.930420	16.554188
266.007599	1528.047363	3930.997070	1930.211304	16.736261
266.380127	1524.408325	3887.770752	1924.807861	16.941944
266.752594	1526.503418	3869.796143	1921.058594	16.837639
267.125031	1525.952148	3869.355225	1917.860840	16.723913
267.497437	1520.879517	3888.873535	1922.933350	16.978666
267.869843	1518.674072	3911.148438	1925.800537	17.016962
268.242218	1521.430908	3946.104980	1931.975830	16.931963
268.614532	1521.872070	4017.010498	1942.562134	16.860390
268.986816	1519.004883	4098.060547	1953.258423	16.837696
269.359100	1521.871948	4188.152832	1956.566650	16.303411
269.731354	1522.092407	4275.819824	1961.969849	15.973891
270.103516	1523.084961	4346.615234	1974.761475	15.996872
270.475708	1518.784424	4407.816406	1986.009277	16.172367
270.847839	1522.092529	4464.496094	1992.846191	15.998950
271.219971	1526.944702	4510.920898	1997.036499	15.753873
271.592041	1529.921875	4535.180664	2002.109009	15.712029
271.964081	1532.237671	4553.485840	2004.865845	15.643475
272.336151	1532.237671	4574.547852	2009.938599	15.701915
272.708130	1531.686279	4593.956055	2012.143799	15.689589
273.080109	1530.804077	4614.908203	2012.143799	15.607117
273.452026	1530.252686	4644.680664	2019.862915	15.720712
273.823914	1533.560913	4678.535156	2024.825195	15.620614
274.195770	1535.435425	4714.483887	2029.015869	15.526044
274.567627	1536.979126	4748.447754	2033.757446	15.468883
274.939423	1537.420288	4784.065918	2041.476563	15.525449
275.311249	1538.853882	4807.002441	2043.461304	15.440163
275.682983	1536.979370	4827.954590	2049.526611	15.574327
276.054688	1534.443115	4832.806641	2050.077881	15.633048
276.426422	1536.648560	4815.052734	2045.115356	15.509582
276.798065	1537.530640	4785.389648	2038.057983	15.410995
277.169708	1537.199951	4757.159668	2035.962646	15.489718
277.541321	1539.515625	4739.075195	2034.749634	15.478193
277.912903	1539.074585	4743.375977	2034.749756	15.469056
278.284424	1539.736206	4756.277344	2036.183228	15.434189
278.655945	1535.656250	4777.670410	2041.145630	15.591831
279.027435	1538.523315	4811.523926	2050.298340	15.636265
279.398865	1537.971924	4872.173828	2058.899658	15.623761
279.770294	1538.412964	4936.683105	2067.611084	15.572575
280.141663	1538.082275	4996.009766	2072.573242	15.456974
280.513031	1541.500610	5055.887695	2082.498047	15.393791
280.884369	1538.523193	5092.829102	2089.996582	15.515642
281.255676	1540.177368	5132.637207	2094.958740	15.442938
281.626953	1538.412964	5166.601074	2100.582520	15.494499
281.998199	1539.736206	5202.770996	2102.898193	15.374192
282.369385	1540.508057	5250.519043	2109.625000	15.340034
282.740540	1542.603271	5308.743164	2111.279053	15.099699
283.111694	1540.397827	5362.334961	2122.526855	15.231256
283.482819	1541.059326	5430.263184	2128.922607	15.115260
283.853912	1542.382813	5511.203613	2141.493652	15.095437
284.224945	1538.743774	5583.652832	2156.049561	15.261302
284.595978	1542.272461	5653.455566	2163.989258	15.122576
284.966980	1541.941650	5715.318359	2168.400146	15.010829
285.337952	1537.861450	5756.670410	2176.229492	15.131475
285.708893	1539.405273	5777.953613	2180.199463	15.118247
286.079803	1540.949097	5798.574219	2183.066650	15.081590
286.450684	1543.154785	5811.917480	2186.374756	15.068066
286.821533	1537.861572	5818.423340	2186.815918	15.160496
287.192322	1536.097412	5819.305176	2184.720703	15.143399
287.563110	1538.082275	5831.985840	2187.146484	15.115949
287.933868	1538.854126	5849.850098	2196.630127	15.258098
288.304596	1538.523315	5884.034668	2203.797852	15.309465
288.675262	1538.743896	5930.018555	2212.619385	15.345784
289.045929	1537.641113	5962.328613	2222.874512	15.486594
289.416565	1536.869141	5990.999023	2223.867188	15.423844
289.787170	1538.302734	5998.938477	2225.300781	15.401348
290.157745	1535.545898	6001.916016	2225.080322	15.438363
290.528259	1536.317749	5993.204102	2231.807129	15.604827
290.898773	1539.736084	6004.672852	2232.579102	15.517422
291.269226	1537.751221	6002.908691	2234.343262	15.600616
291.639679	1538.192261	5995.741211	2236.989990	15.676726
292.010101	1540.397827	6016.803223	2234.232666	15.499822
292.380463	1537.199829	6050.877441	2242.393066	15.623473
292.750824	1539.625854	6085.503418	2258.382324	15.811172
293.121155	1537.640869	6131.597168	2265.108887	15.835328
293.491455	1534.884155	6201.399414	2274.482422	15.849049
293.861725	1532.458130	6279.141602	2286.391846	15.883378
294.231964	1532.458130	6366.808594	2299.183350	15.859942
294.602142	1535.766235	6463.296875	2313.298096	15.779341
294.972321	1533.009399	6543.686035	2325.538574	15.816809
295.342468	1527.716309	6605.217773	2337.337891	15.945275
295.712555	1525.731445	6647.011230	2335.683594	15.815425
296.082672	1529.370483	6671.602051	2336.565918	15.697376
296.452728	1529.811523	6675.351074	2339.433105	15.734435
296.822693	1528.378052	6675.020020	2337.117432	15.713923
297.192657	1527.495850	6668.844727	2341.969482	15.841634
297.562622	1525.510986	6691.009766	2349.247314	15.946888
297.932556	1531.355469	6707.330566	2355.643311	15.925267
298.302460	1530.693848	6710.307129	2353.106934	15.877886
298.672333	1529.260376	6708.653320	2355.753418	15.957334
299.042145	1529.260376	6706.778809	2355.312500	15.954596
299.411957	1527.716553	6705.897461	2346.711182	15.816262
299.781677	1527.716553	6663.441406	2345.498047	15.923390
300.151428	1527.496094	6619.552734	2339.212891	15.940844
300.521149	1524.629028	6556.917969	2328.405762	15.972388
300.890839	1525.842041	6491.747559	2318.591553	15.963847
301.260468	1526.503662	6415.769531	2309.218506	16.008842
301.630096	1525.621338	6328.434570	2299.624756	16.115625
301.999695	1525.290527	6236.907715	2287.825195	16.184139
302.369232	1523.526245	6126.966309	2271.504639	16.248249
302.738739	1525.952148	6024.302246	2259.705811	16.311617
303.108246	1529.922119	5926.270020	2243.936768	16.241087
303.477692	1530.363159	5852.166504	2234.012451	16.281382
303.847137	1526.724121	5775.858398	2228.057617	16.505327
304.216553	1530.363037	5724.691406	2222.433838	16.500158
304.585876	1531.465820	5688.742188	2214.494141	16.429707
304.955231	1535.215088	5666.687988	2210.083008	16.334803
305.324493	1534.443115	5638.126953	2208.759766	16.431984
305.693787	1530.252686	5612.212891	2208.980225	16.627491
306.063049	1530.032227	5607.581055	2212.178467	16.729321
306.432251	1528.708740	5606.588379	2214.935059	16.828018
306.801422	1529.260132	5598.097656	2218.353516	16.935879
307.170593	1532.568481	5595.450684	2223.867432	17.014988
307.539673	1528.819092	5608.573730	2226.403564	17.098686
307.908783	1531.575928	5615.080078	2227.727051	17.047886
308.277832	1531.355347	5644.522949	2229.601563	16.975876
308.646851	1534.773926	5681.133301	2237.541016	16.949015
309.015839	1536.207520	5715.649414	2239.856689	16.835960
309.384796	1538.082153	5746.415039	2244.819092	16.793751
309.753723	1535.766357	5771.998047	2245.921875	16.763851
310.122620	1533.891724	5793.611816	2251.766113	16.852619
310.491486	1532.899292	5812.357422	2257.390137	16.929501
310.860352	1530.914307	5821.179199	2257.169678	16.927986
311.229126	1534.332886	5826.031250	2259.375000	16.894060
311.597931	1529.701416	5843.123535	2256.508057	16.849886
311.966675	1526.613892	5869.699219	2253.751221	16.742414
312.335388	1526.834351	5896.274414	2260.036621	16.780235
312.704071	1522.974854	5922.739746	2267.094238	16.912708
313.072723	1524.959717	5931.230957	2266.432373	16.827665
313.441345	1523.526245	5931.341309	2261.249512	16.736712
313.809875	1523.195313	5911.823242	2256.177246	16.701847
314.178436	1523.195190	5885.688477	2248.237549	16.619907
314.546967	1521.982178	5851.614258	2242.062256	16.631439
314.915466	1519.446045	5811.254883	2233.681641	16.641832
315.283936	1523.967163	5773.100586	2225.631592	16.513119
315.652374	1523.195557	5733.402344	2220.779785	16.568882
316.020752	1523.416016	5692.822266	2211.957764	16.514143
316.389130	1525.842041	5654.116699	2206.113281	16.478344
316.757416	1525.621460	5628.202637	2202.474365	16.498220
