Jaz Data File
++++++++++++++++++++++++++++++++++++
Date: Fri Jun 21 02:23:39 2019
User: jaz
Dark Spectrum Present: Yes
Reference Spectrum Present: Yes
Processed Spectrum Present: Yes
Spectrometers: JAZA3541
Integration Time (usec): 119000 (JAZA3541)
Spectra Averaged: 1 (JAZA3541)
Boxcar Smoothing: 10 (JAZA3541)
Correct for Electrical Dark: No (JAZA3541)
Strobe/Lamp Enabled: Yes (JAZA3541)
Correct for Detector Non-linearity: No (JAZA3541)
Correct for Stray Light: No (JAZA3541)
Number of Pixels in Processed Spectrum: 2048
>>>>>Begin Processed Spectral Data<<<<<
W	D	R	S	P
190.543274	0.000000	0.000000	0.000000	0.000000
190.921555	0.000000	0.000000	0.000000	0.000000
191.299805	1558.482544	1405.644653	1590.902588	-21.212046
191.678024	1533.009521	1440.380615	1583.955444	-55.000027
192.056229	1539.956665	1535.325317	1551.535278	-250.005264
192.434387	1519.115234	1551.535278	1632.585693	350.000946
192.812531	1604.796997	1597.849854	1690.478760	-1233.338013
193.190659	1556.166748	1542.272461	1611.744141	-400.001770
193.568741	1623.322754	1530.693848	1558.482544	69.999977
193.946793	0.000000	0.000000	0.000000	0.000000
194.324829	1410.165894	1403.770142	1465.743164	-868.971619
194.702835	1483.938232	1477.322021	1544.146973	-910.018433
195.080811	1555.725708	1551.645752	1623.102173	-1651.401733
195.458755	1552.307251	1560.467407	1627.402954	920.272888
195.836685	1553.520386	1565.540039	1627.182251	612.845154
196.214569	1554.953857	1568.627808	1628.726196	539.510071
196.592422	1551.425171	1571.164063	1628.946655	392.734741
196.970261	1549.219727	1570.833130	1628.726196	367.857239
197.348068	1548.999146	1571.274170	1632.585693	375.247833
197.725861	1545.690796	1573.810425	1637.106934	325.097229
198.103622	1539.625854	1573.589844	1637.658325	288.636505
198.481323	1540.287598	1569.399536	1634.570679	323.863983
198.859039	1539.846436	1568.958374	1633.909058	323.106689
199.236694	1536.758789	1568.296631	1634.460327	309.791443
199.614334	1539.295166	1566.201660	1638.540405	368.852356
199.991959	1540.728760	1571.604858	1638.981445	318.216003
200.369553	1537.751465	1570.502075	1637.547974	304.716492
200.747101	1536.759033	1571.935669	1634.239624	277.117432
201.124619	1535.215210	1570.502197	1636.665771	287.501343
201.502136	1531.796631	1571.274048	1639.422485	272.626373
201.879623	1529.922119	1568.517334	1637.327393	278.286499
202.257065	1525.621216	1569.730225	1634.901367	247.750183
202.634476	1525.621216	1573.589600	1632.806152	223.449127
203.011871	1524.187744	1573.258911	1630.710938	217.078995
203.389221	1524.408203	1571.715088	1629.056885	221.212372
203.766571	1523.415649	1570.722656	1631.703491	228.904449
204.143875	1523.305542	1567.635010	1634.019165	249.751755
204.521164	1526.613770	1564.878296	1631.262329	273.487152
204.898392	1524.408203	1563.444702	1628.395264	266.384186
205.275620	1523.856812	1563.665405	1624.204956	252.076584
205.652817	1524.297852	1562.783081	1622.991943	256.446686
206.029984	1529.370483	1566.422241	1623.653687	254.463516
206.407135	1528.378052	1568.848267	1624.315308	237.056458
206.784225	1530.473389	1569.950928	1622.771606	233.799316
207.161301	1530.252808	1570.281616	1622.220093	229.752747
207.538376	1528.929443	1571.274170	1617.919434	210.156021
207.915405	1529.260376	1568.517456	1619.683838	230.336700
208.292404	1529.480835	1568.737671	1622.220093	236.237213
208.669373	1525.952148	1570.833008	1619.353027	208.108490
209.046310	1524.628784	1571.053589	1616.927124	198.812561
209.423218	1528.267822	1569.509644	1617.478394	216.310944
209.800095	1530.032227	1570.612549	1617.478394	215.489090
210.176956	1530.032227	1570.833130	1619.353027	218.918686
210.553787	1531.686279	1566.201660	1620.676392	257.827423
210.930603	1535.435425	1566.091553	1622.881714	285.248962
211.307358	1536.648438	1565.760620	1622.109741	293.558563
211.684113	1538.412842	1570.391968	1622.550781	263.102692
212.060837	1534.773804	1573.920776	1620.896729	219.998947
212.437531	1533.340210	1574.802856	1621.007080	211.435776
212.814178	1532.458130	1578.772705	1620.786499	190.713974
213.190826	1532.788940	1580.426758	1623.874268	191.203827
213.567413	1530.914307	1580.095947	1622.550781	186.322525
213.943985	1528.267822	1576.015869	1624.645996	201.847366
214.320541	1528.488281	1577.669800	1625.087036	196.412720
214.697052	1527.716431	1577.228760	1624.315308	195.100647
215.073563	1529.591064	1581.198486	1628.064575	190.812698
215.449997	1529.921875	1582.852661	1629.498169	188.125473
215.826431	1528.708862	1588.586670	1626.851563	163.904968
216.202850	1529.370483	1590.792236	1625.087036	155.834946
216.579224	1533.119751	1588.807495	1628.174683	170.692734
216.955582	1533.560791	1588.586914	1627.954102	171.542725
217.331894	1531.135010	1586.932861	1626.189941	170.355896
217.708191	1532.017090	1588.035400	1626.079590	167.913849
218.084442	1537.420532	1591.674438	1624.866577	161.179260
218.460678	1534.443115	1598.180420	1624.315308	141.004074
218.836899	1532.678711	1603.694214	1622.991943	127.173965
219.213074	1532.127563	1606.892090	1619.573608	116.961945
219.589233	1531.024658	1605.348389	1620.345459	120.178040
219.965347	1533.891846	1609.869385	1623.432983	117.852119
220.341431	1535.987061	1615.713867	1625.528320	112.310104
220.717499	1535.435669	1614.721558	1621.889282	109.040352
221.093552	1534.002075	1619.242554	1618.691406	99.353424
221.469543	1535.104858	1625.197510	1621.007080	95.348755
221.845535	1536.207642	1630.380249	1621.337769	90.397972
222.221466	1537.310303	1634.350098	1620.565796	85.795204
222.597397	1535.435547	1642.069214	1622.330200	81.488945
222.973297	1537.420532	1647.362183	1622.109741	77.031052
223.349167	1536.979492	1655.853271	1626.630737	75.417175
223.725006	1537.530640	1662.359375	1629.056763	73.321358
224.100800	1538.082153	1671.952881	1631.923950	70.098816
224.476578	1538.854004	1682.097900	1636.004150	67.821487
224.852325	1537.971680	1701.726563	1639.091675	61.750828
225.228058	1541.279907	1724.332397	1640.084106	53.975883
225.603760	1540.838867	1750.246460	1641.628174	48.130684
225.979416	1536.317749	1779.248169	1648.575195	46.209713
226.355057	1535.325195	1813.322388	1652.324585	42.086536
226.730652	1533.671143	1852.028076	1655.853271	38.378975
227.106232	1534.773926	1886.543335	1665.777710	37.241379
227.481796	1531.575928	1920.286865	1670.298950	35.687965
227.857315	1528.378052	1946.972900	1671.732544	34.246597
228.232788	1528.819214	1971.673950	1677.907715	33.665329
228.608246	1531.465698	1999.903687	1685.406494	32.862576
228.983704	1534.112305	2022.950684	1689.265869	31.739235
229.359100	1531.575928	2040.263428	1694.228027	31.974857
229.734482	1528.378052	2061.546143	1697.977295	31.809713
230.109833	1529.039795	2075.881592	1701.175171	31.478094
230.485153	1528.488403	2087.349609	1704.152710	31.432547
230.860443	1521.541260	2101.575195	1704.152588	31.482870
231.235703	1520.879517	2121.534668	1703.270264	30.365301
231.610931	1519.225464	2137.523926	1704.593506	29.980350
231.986145	1517.240479	2152.079834	1705.144897	29.598736
232.361313	1516.468506	2165.532959	1704.593750	28.984062
232.736465	1519.115112	2169.833984	1707.460938	28.944269
233.111572	1517.571289	2172.921387	1712.202759	29.698854
233.486664	1518.894653	2171.708252	1714.187744	29.915598
233.861725	1517.350586	2169.944092	1713.856812	30.111582
234.236755	1520.107422	2156.931885	1715.510620	30.683996
234.611771	1522.313110	2138.516357	1714.407959	31.173943
234.986740	1523.415771	2132.671875	1709.114746	30.479626
235.361679	1526.062256	2128.922607	1705.586182	29.778692
235.736588	1526.393188	2124.952881	1707.460571	30.250513
236.111496	1527.936890	2122.196045	1708.232544	30.339567
236.486343	1528.819092	2122.857666	1710.658691	30.610739
236.861160	1527.716309	2128.371582	1715.069336	31.191441
237.235962	1529.370483	2138.626465	1716.392822	30.696840
237.610733	1532.016968	2152.962158	1717.716309	29.905914
237.985474	1532.016968	2177.111572	1722.458008	29.521412
238.360199	1533.009521	2207.988037	1731.279785	29.374308
238.734879	1534.994385	2240.628662	1739.770630	29.020166
239.109543	1532.347900	2281.539551	1752.562256	29.393595
239.484177	1533.450562	2334.360352	1762.707397	28.624552
239.858749	1535.325195	2397.105469	1777.814941	28.138233
240.233322	1530.804199	2464.923096	1790.275635	27.777132
240.607864	1528.709106	2528.660889	1801.964233	27.326830
240.982391	1529.370728	2583.025391	1810.234741	26.656174
241.356857	1527.826904	2627.685547	1817.182129	26.308401
241.731308	1533.340454	2665.288574	1818.946411	25.231365
242.105728	1529.150024	2699.583252	1822.916260	25.098932
242.480118	1528.708984	2736.414307	1829.642700	24.917810
242.854492	1529.480957	2770.378418	1841.331421	25.131042
243.228836	1527.606323	2818.898193	1856.549072	25.473927
243.603134	1531.245361	2883.187256	1867.797119	24.893951
243.977402	1529.150146	2971.956787	1883.455933	24.556705
244.351654	1526.724121	3079.692871	1903.415161	24.256189
244.725861	1527.495972	3195.809814	1926.020874	23.887886
245.100067	1529.260376	3309.391113	1947.744385	23.508612
245.474213	1530.693970	3406.872070	1963.513428	23.069210
245.848343	1529.150146	3476.453857	1977.518066	23.025064
246.222443	1528.378174	3532.362061	1986.781006	22.874577
246.596512	1530.252808	3565.884766	1997.477661	22.952324
246.970566	1530.804077	3581.543457	1996.154419	22.691833
247.344574	1531.134888	3573.714355	1993.728271	22.647511
247.718567	1528.157471	3552.431641	1987.001831	22.667105
248.092529	1533.561035	3529.936035	1981.708740	22.448072
248.466431	1533.891724	3510.307617	1979.062134	22.524126
248.840332	1534.002197	3506.668945	1977.077393	22.460722
249.214203	1533.891846	3516.923828	1984.355225	22.715891
249.588043	1529.811768	3538.868408	1989.979004	22.904642
249.961838	1525.952148	3566.656982	1996.485107	23.057375
250.335617	1524.629028	3592.460938	2001.006104	23.037514
250.709381	1522.423584	3603.377930	2004.314209	23.157194
251.083084	1521.320801	3591.468262	1998.800537	23.065010
251.456787	1521.982422	3561.474365	1994.720459	23.179207
251.830460	1521.762085	3509.425293	1984.244751	23.267658
252.204071	1522.203125	3429.367188	1971.012085	23.532793
252.577667	1521.761963	3337.069092	1955.353394	23.885294
252.951248	1521.541260	3250.725830	1941.128296	24.265022
253.324799	1517.020142	3177.835449	1929.219116	24.819073
253.698303	1516.248169	3130.969482	1918.853394	24.933418
254.071793	1518.233032	3092.374268	1912.237183	25.029783
254.445236	1520.769287	3078.479736	1906.613037	24.769928
254.818665	1521.541260	3072.855957	1906.061768	24.786751
255.192062	1521.320801	3089.396729	1911.134277	24.859350
255.565430	1525.511108	3120.272949	1918.743164	24.657730
255.938782	1522.092651	3155.891113	1926.572510	24.757023
256.312103	1523.636475	3214.445801	1934.071045	24.274445
256.685364	1522.202881	3288.438721	1946.752441	24.036968
257.058594	1520.107666	3374.341064	1964.175537	23.948866
257.431793	1523.195435	3472.593750	1983.803955	23.628241
257.804993	1527.716431	3583.969238	2001.999023	23.065382
258.178162	1529.150024	3682.222412	2017.326782	22.673496
258.551270	1530.032227	3768.455322	2027.692383	22.232622
258.924377	1529.370483	3840.132080	2037.506470	21.989977
259.297485	1525.290405	3899.569580	2044.343384	21.861496
259.670502	1529.149780	3942.906982	2051.621338	21.645571
260.043518	1533.891602	3992.750732	2054.488525	21.172297
260.416473	1530.362793	4040.167725	2058.348145	21.036907
260.789459	1527.606079	4078.542725	2064.082275	21.030558
261.162354	1530.803955	4110.521484	2070.919189	20.936991
261.535278	1529.149902	4134.229980	2076.433105	21.008307
261.908142	1529.370483	4159.372070	2076.984619	20.821819
262.280975	1526.613647	4174.479004	2077.645996	20.810438
262.653717	1530.583374	4190.909668	2079.851318	20.646639
263.026520	1530.914307	4200.062012	2076.984375	20.458593
263.399261	1525.952148	4207.781250	2076.653564	20.534546
263.771973	1526.834351	4219.911133	2078.417725	20.481533
264.144653	1523.084961	4213.735840	2077.756104	20.614758
264.517334	1525.290405	4186.388184	2075.991699	20.694517
264.889954	1525.952148	4137.316406	2064.523438	20.624134
265.262543	1526.393188	4074.020508	2051.069824	20.594715
265.635071	1529.480835	3996.830078	2037.616577	20.594400
266.007599	1528.047363	3930.997070	2031.772339	20.962776
266.380127	1524.408325	3887.770752	2023.171143	21.103951
266.752594	1526.503418	3869.796143	2017.988281	20.974113
267.125031	1525.952148	3869.355225	2017.988525	20.996660
267.497437	1520.879517	3888.873535	2022.289063	21.174442
267.869843	1518.674072	3911.148438	2030.118286	21.377207
268.242218	1521.430908	3946.104980	2034.859741	21.175169
268.614532	1521.872070	4017.010498	2044.674316	20.952835
268.986816	1519.004883	4098.060547	2060.001953	20.976557
269.359100	1521.871948	4188.152832	2074.888672	20.741129
269.731354	1522.092407	4275.819824	2091.209229	20.667143
270.103516	1523.084961	4346.615234	2104.110840	20.577993
270.475708	1518.784424	4407.816406	2111.389160	20.512224
270.847839	1522.092529	4464.496094	2120.321289	20.331295
271.219971	1526.944702	4510.920898	2129.143066	20.181072
271.592041	1529.921875	4535.180664	2133.774658	20.093204
271.964081	1532.237671	4553.485840	2138.516357	20.067160
272.336151	1532.237671	4574.547852	2135.759521	19.837618
272.708130	1531.686279	4593.956055	2131.900146	19.600294
273.080109	1530.804077	4614.908203	2134.987793	19.590252
273.452026	1530.252686	4644.680664	2136.641846	19.470322
273.823914	1533.560913	4678.535156	2137.634277	19.207579
274.195770	1535.435425	4714.483887	2148.220459	19.275738
274.567627	1536.979126	4748.447754	2158.255371	19.345549
274.939423	1537.420288	4784.065918	2162.004639	19.237837
275.311249	1538.853882	4807.002441	2158.255127	18.952665
275.682983	1536.979370	4827.954590	2156.490967	18.824560
276.054688	1534.443115	4832.806641	2158.696045	18.926142
276.426422	1536.648560	4815.052734	2154.064941	18.832832
276.798065	1537.530640	4785.389648	2144.691650	18.694193
277.169708	1537.199951	4757.159668	2138.185547	18.664383
277.541321	1539.515625	4739.075195	2134.767090	18.604168
277.912903	1539.074585	4743.375977	2133.223145	18.542219
278.284424	1539.736206	4756.277344	2137.302979	18.577930
278.655945	1535.656250	4777.670410	2141.493408	18.687061
279.027435	1538.523315	4811.523926	2146.676270	18.580900
279.398865	1537.971924	4872.173828	2156.160156	18.540815
279.770294	1538.412964	4936.683105	2163.989502	18.408676
280.141663	1538.082275	4996.009766	2176.891602	18.473763
280.513031	1541.500610	5055.887695	2192.550049	18.525263
280.884369	1538.523193	5092.829102	2203.356689	18.705017
281.255676	1540.177368	5132.637207	2211.406738	18.684395
281.626953	1538.412964	5166.601074	2217.030273	18.704029
281.998199	1539.736206	5202.770996	2218.905029	18.541151
282.369385	1540.508057	5250.519043	2223.426270	18.407444
282.740540	1542.603271	5308.743164	2235.115234	18.387844
283.111694	1540.397827	5362.334961	2247.135010	18.491596
283.482819	1541.059326	5430.263184	2265.109619	18.616928
283.853912	1542.382813	5511.203613	2277.018799	18.510183
284.224945	1538.743774	5583.652832	2285.950928	18.472780
284.595978	1542.272461	5653.455566	2301.389404	18.464684
284.966980	1541.941650	5715.318359	2313.519043	18.488083
285.337952	1537.861450	5756.670410	2313.629395	18.388315
285.708893	1539.405273	5777.953613	2316.385986	18.331293
286.079803	1540.949097	5798.574219	2321.238037	18.326859
286.450684	1543.154785	5811.917480	2324.876953	18.312616
286.821533	1537.861572	5818.423340	2327.412842	18.445040
287.192322	1536.097412	5819.305176	2330.169922	18.539200
287.563110	1538.082275	5831.985840	2334.580811	18.549522
287.933868	1538.854126	5849.850098	2342.299805	18.637123
288.304596	1538.523315	5884.034668	2351.673096	18.712408
288.675262	1538.743896	5930.018555	2360.825684	18.720802
289.045929	1537.641113	5962.328613	2370.970703	18.833637
289.416565	1536.869141	5990.999023	2379.020752	18.907207
289.787170	1538.302734	5998.938477	2386.408936	19.013124
290.157745	1535.545898	6001.916016	2392.363770	19.183764
290.528259	1536.317749	5993.204102	2395.230957	19.271599
290.898773	1539.736084	6004.672852	2402.619141	19.325764
291.269226	1537.751221	6002.908691	2401.516113	19.344557
291.639679	1538.192261	5995.741211	2403.390869	19.409739
292.010101	1540.397827	6016.803223	2409.455811	19.414194
292.380463	1537.199829	6050.877441	2416.182373	19.473755
292.750824	1539.625854	6085.503418	2422.578369	19.423149
293.121155	1537.640869	6131.597168	2443.199463	19.711956
293.491455	1534.884155	6201.399414	2455.108887	19.719742
293.861725	1532.458130	6279.141602	2472.642090	19.807177
294.231964	1532.458130	6366.808594	2493.594238	19.881390
294.602142	1535.766235	6463.296875	2513.994385	19.852299
294.972321	1533.009399	6543.686035	2527.888916	19.855192
295.342468	1527.716309	6605.217773	2542.996094	19.995657
295.712555	1525.731445	6647.011230	2547.627686	19.953924
296.082672	1529.370483	6671.602051	2546.966064	19.788988
296.452728	1529.811523	6675.351074	2549.171387	19.810553
296.822693	1528.378052	6675.020020	2553.361572	19.915579
297.192657	1527.495850	6668.844727	2553.141113	19.948954
297.562622	1525.510986	6691.009766	2554.905273	19.928265
297.932556	1531.355469	6707.330566	2558.985596	19.853846
298.302460	1530.693848	6710.307129	2560.750000	19.886738
298.672333	1529.260376	6708.653320	2561.080811	19.921648
299.042145	1529.260376	6706.778809	2561.411865	19.935255
299.411957	1527.716553	6705.897461	2562.734863	19.988070
299.781677	1527.716553	6663.441406	2561.963135	20.138279
300.151428	1527.496094	6619.552734	2550.825439	20.096582
300.521149	1524.629028	6556.917969	2541.342529	20.203798
300.890839	1525.842041	6491.747559	2525.904053	20.138563
301.260468	1526.503662	6415.769531	2517.964355	20.278315
301.630096	1525.621338	6328.434570	2500.982422	20.308119
301.999695	1525.290527	6236.907715	2488.521729	20.443748
302.369232	1523.526245	6126.966309	2468.121338	20.519331
302.738739	1525.952148	6024.302246	2449.815918	20.537836
303.108246	1529.922119	5926.270020	2433.826660	20.560352
303.477692	1530.363159	5852.166504	2423.681396	20.670034
303.847137	1526.724121	5775.858398	2414.197754	20.885986
304.216553	1530.363037	5724.691406	2404.383301	20.838146
304.585876	1531.465820	5688.742188	2394.569092	20.761267
304.955231	1535.215088	5666.687988	2387.070557	20.618689
305.324493	1534.443115	5638.126953	2383.431641	20.688450
305.693787	1530.252686	5612.212891	2376.815186	20.739117
306.063049	1530.032227	5607.581055	2376.373779	20.756136
306.432251	1528.708740	5606.588379	2378.028320	20.827480
306.801422	1529.260132	5598.097656	2381.557129	20.946941
307.170593	1532.568481	5595.450684	2385.085449	20.983059
307.539673	1528.819092	5608.573730	2386.960449	21.034142
307.908783	1531.575928	5615.080078	2392.694580	21.087738
308.277832	1531.355347	5644.522949	2399.531738	21.107246
308.646851	1534.773926	5681.133301	2407.470947	21.047308
309.015839	1536.207520	5715.649414	2412.212646	20.959860
309.384796	1538.082153	5746.415039	2420.593262	20.970562
309.753723	1535.766357	5771.998047	2421.916748	20.918365
310.122620	1533.891724	5793.611816	2424.894043	20.916922
310.491486	1532.899292	5812.357422	2429.304932	20.946709
310.860352	1530.914307	5821.179199	2428.753418	20.927361
311.229126	1534.332886	5826.031250	2429.304688	20.853558
311.597931	1529.701416	5843.123535	2427.871582	20.822683
311.966675	1526.613892	5869.699219	2429.966797	20.799795
312.335388	1526.834351	5896.274414	2432.172363	20.719772
312.704071	1522.974854	5922.739746	2437.134277	20.777462
313.072723	1524.959717	5931.230957	2436.583008	20.689222
313.441345	1523.526245	5931.341309	2438.568115	20.759535
313.809875	1523.195313	5911.823242	2437.134277	20.825165
314.178436	1523.195190	5885.688477	2430.076904	20.788153
314.546967	1521.982178	5851.614258	2419.711426	20.734541
314.915466	1519.446045	5811.254883	2412.543457	20.809349
315.283936	1523.967163	5773.100586	2403.942627	20.709528
315.652374	1523.195557	5733.402344	2396.333740	20.738604
316.020752	1523.416016	5692.822266	2386.739990	20.706161
316.389130	1525.842041	5654.116699	2383.431641	20.773561
316.757416	1525.621460	5628.202637	2381.226563	20.855288
