Jaz Data File
++++++++++++++++++++++++++++++++++++
Date: Thu Sep 26 04:31:39 2019
User: jaz
Dark Spectrum Present: Yes
Reference Spectrum Present: Yes
Processed Spectrum Present: Yes
Spectrometers: JAZA3541
Integration Time (usec): 100000 (JAZA3541)
Spectra Averaged: 1 (JAZA3541)
Boxcar Smoothing: 10 (JAZA3541)
Correct for Electrical Dark: No (JAZA3541)
Strobe/Lamp Enabled: Yes (JAZA3541)
Correct for Detector Non-linearity: No (JAZA3541)
Correct for Stray Light: No (JAZA3541)
Number of Pixels in Processed Spectrum: 2048
>>>>>Begin Processed Spectral Data<<<<<
W	D	R	S	P
190.543274	0.000000	0.000000	0.000000	0.000000
190.921555	0.000000	0.000000	0.000000	0.000000
191.299805	1296.805664	1336.172974	1088.390503	-529.411743
191.678024	1229.649658	1322.278564	1227.333862	-2.500079
192.056229	1345.435913	1313.015747	1169.440796	542.856934
192.434387	1331.541504	1278.279907	1187.966553	269.565613
192.812531	1303.752808	1324.594360	1176.387939	-611.110291
193.190659	1310.699951	1296.805664	1150.915039	1150.004395
193.568741	1319.962891	1359.330200	1201.860962	-300.000000
193.946793	0.000000	0.000000	0.000000	0.000000
194.324829	1207.815674	1211.785522	1083.758789	-3124.977783
194.702835	1271.994385	1273.317627	1142.644409	-9775.230469
195.080811	1337.606445	1335.070313	1198.221802	5495.952148
195.458755	1337.827148	1332.203125	1202.412231	2407.794434
195.836685	1338.268188	1331.541626	1198.552612	2077.072510
196.214569	1339.811890	1336.172974	1201.199341	3809.171387
196.592422	1341.907104	1340.032471	1204.838257	7311.766602
196.970261	1342.679077	1342.127686	1205.941040	24798.716797
197.348068	1343.781860	1343.120117	1208.367065	20463.345703
197.725861	1344.222900	1342.127563	1208.367065	6483.722656
198.103622	1343.561279	1338.157837	1208.366943	2502.003906
198.481323	1340.253052	1337.496216	1208.256714	4787.964844
198.859039	1337.937378	1335.290771	1207.595093	4924.883301
199.236694	1335.070313	1335.621460	1203.184204	-23929.369141
199.614334	1333.416138	1335.511230	1203.515137	-6200.250488
199.991959	1329.115479	1337.937134	1208.477295	-1367.523193
200.369553	1324.373657	1337.826904	1204.727905	-889.344788
200.747101	1322.499023	1341.355835	1207.595093	-609.349731
201.124619	1320.514038	1341.576294	1204.507568	-550.778931
201.502136	1316.323608	1346.538452	1205.941162	-365.325226
201.879623	1313.677246	1349.736450	1205.389648	-300.305023
202.257065	1311.030640	1351.500854	1204.727905	-262.669067
202.634476	1309.927979	1352.934570	1200.317139	-254.869858
203.011871	1305.186279	1354.809082	1203.184204	-205.554840
203.389221	1303.091064	1361.866455	1205.169067	-166.603729
203.766571	1304.745117	1367.931519	1206.823242	-154.973022
204.143875	1300.334229	1365.064331	1204.507568	-148.040329
204.521164	1296.254272	1365.284912	1199.324829	-140.415100
204.898392	1297.798096	1363.300049	1200.096680	-149.158020
205.275620	1298.459717	1368.703369	1201.530151	-137.990494
205.652817	1293.718018	1368.482910	1199.986328	-125.368584
206.029984	1293.607666	1372.673218	1199.655640	-118.828018
206.407135	1291.953613	1374.988892	1200.427490	-110.225586
206.784225	1292.394775	1374.437378	1202.192017	-109.946243
207.161301	1293.607910	1372.893555	1201.971313	-115.577789
207.538376	1298.570190	1373.555176	1201.861084	-128.971298
207.915405	1302.209229	1370.798462	1199.545410	-149.679199
208.292404	1303.422119	1370.798584	1203.184448	-148.772522
208.669373	1305.406860	1366.718506	1200.427490	-171.222565
209.046310	1302.319336	1363.961670	1196.898804	-171.019699
209.423218	1303.863159	1361.645874	1195.575439	-187.405045
209.800095	1305.737793	1357.124756	1197.009033	-211.588226
210.176956	1308.715210	1353.265137	1199.324707	-245.545868
210.553787	1308.163818	1355.911743	1202.743164	-220.785828
210.930603	1309.597412	1356.242554	1202.412354	-229.788254
211.307358	1315.221313	1353.485718	1200.868408	-298.849304
211.684113	1317.316406	1349.846680	1197.670532	-367.798553
212.060837	1316.985596	1348.413086	1199.434937	-374.037689
212.437531	1316.765015	1350.839233	1199.986206	-342.718964
212.814178	1314.008179	1354.037109	1202.522583	-278.512543
213.190826	1312.574585	1351.280273	1201.971191	-285.754883
213.567413	1313.125977	1352.383057	1201.199341	-285.111969
213.943985	1310.258789	1357.345337	1201.640381	-230.678223
214.320541	1309.266479	1357.124756	1198.001343	-232.488815
214.697052	1307.612305	1361.315186	1196.678101	-206.570297
215.073563	1309.266357	1363.300049	1197.339722	-207.142303
215.449997	1303.863159	1360.874023	1197.560303	-186.460693
215.826431	1301.326904	1362.086914	1197.670532	-170.599670
216.202850	1300.334351	1364.954102	1197.891235	-158.532211
216.579224	1298.459717	1369.695923	1199.104126	-139.473450
216.955582	1300.885742	1374.989014	1200.868530	-134.970032
217.331894	1300.554932	1374.217041	1199.655518	-136.975998
217.708191	1300.003418	1376.863647	1197.670532	-133.141525
218.084442	1300.113770	1383.480103	1198.332275	-122.089447
218.460678	1296.915771	1384.141602	1199.765869	-111.377449
218.836899	1295.041260	1385.685303	1200.427490	-104.379471
219.213074	1292.615234	1387.339478	1199.545288	-98.253563
219.589233	1294.269287	1392.191650	1206.051392	-90.089630
219.965347	1296.805542	1398.697510	1208.697876	-86.471649
220.341431	1295.592529	1399.359131	1210.792969	-81.721443
220.717499	1296.254150	1400.241455	1206.271851	-86.532005
221.093552	1295.041260	1402.336548	1204.838379	-84.069748
221.469543	1299.011108	1407.078247	1207.595093	-84.591873
221.845535	1302.980835	1407.409058	1209.469727	-89.545822
222.221466	1305.296631	1411.709595	1210.021118	-89.533745
222.597397	1305.186279	1417.884766	1209.690186	-84.735916
222.973297	1302.760376	1426.706543	1210.572510	-74.377342
223.349167	1300.554932	1437.403076	1213.329224	-63.739052
223.725006	1297.467285	1446.996826	1216.637329	-54.056179
224.100800	1295.041260	1454.385010	1216.858032	-49.065765
224.476578	1295.372070	1465.081543	1221.709961	-43.404831
224.852325	1297.577515	1475.778076	1228.216064	-38.923248
225.228058	1298.680298	1495.847778	1230.972900	-34.340042
225.603760	1297.577637	1523.195313	1237.920044	-26.441896
225.979416	1295.261963	1552.086792	1244.205566	-19.879852
226.355057	1295.372192	1590.351318	1248.726807	-15.813114
226.730652	1296.805664	1642.069214	1254.019897	-12.392205
227.106232	1296.915894	1691.912231	1268.024536	-7.314335
227.481796	1294.159180	1736.903687	1275.633423	-4.184299
227.857315	1292.946167	1778.145630	1279.272339	-2.818187
228.232788	1296.033813	1815.638184	1283.683105	-2.376945
228.608246	1296.695435	1848.058350	1291.733032	-0.900025
228.983704	1297.026245	1883.345459	1302.429565	0.921566
229.359100	1297.577637	1916.206665	1307.943115	1.675556
229.734482	1293.166748	1945.870117	1311.361572	2.787610
230.109833	1290.189453	1973.768921	1316.875122	3.903814
230.485153	1290.189331	1989.979126	1320.844971	4.380692
230.860443	1289.527710	2012.585205	1324.042969	4.773515
231.235703	1293.166748	2031.331421	1324.484009	4.242585
231.610931	1293.607788	2055.481445	1326.027954	4.255321
231.986145	1293.056396	2079.300049	1332.754395	5.049071
232.361313	1290.189209	2098.708252	1336.724365	5.755604
232.736465	1287.983765	2121.313965	1337.165405	5.901819
233.111572	1285.888550	2134.656982	1343.230347	6.755882
233.486664	1288.865845	2141.052734	1343.671631	6.431193
233.861725	1290.409668	2141.604248	1342.458496	6.114798
234.236755	1292.284302	2138.957520	1341.576538	5.821873
234.611771	1296.474731	2120.873047	1342.127808	5.537745
234.986740	1298.900635	2101.023926	1340.583984	5.196626
235.361679	1299.782959	2083.710938	1342.458496	5.443809
235.736588	1298.570068	2073.235107	1343.892090	5.850532
236.111496	1297.908447	2069.375488	1347.751709	6.460841
236.486343	1298.459717	2071.139893	1354.147461	7.207088
236.861160	1301.106323	2071.250000	1359.440430	7.574445
237.235962	1300.334351	2079.961426	1369.144409	8.826022
237.610733	1302.760376	2089.996338	1378.848511	9.665226
237.985474	1301.437134	2106.978271	1392.853027	11.348383
238.360199	1300.665283	2140.501221	1404.431763	12.355565
238.734879	1301.767944	2177.662842	1424.391235	13.999772
239.109543	1300.334473	2227.616455	1450.194824	16.161249
239.484177	1304.635132	2281.650146	1477.211670	17.663652
239.858749	1310.810303	2350.680908	1501.361450	18.324505
240.233322	1311.361694	2434.047119	1529.039673	19.389044
240.607864	1313.126099	2511.899414	1563.444702	20.881229
240.982391	1314.559570	2592.618896	1590.130737	21.561687
241.356857	1316.213745	2651.063232	1621.337769	22.858309
241.731308	1315.000610	2704.435059	1644.605225	23.722214
242.105728	1317.977905	2744.684814	1673.937866	24.949760
242.480118	1312.354126	2785.926758	1697.646362	26.146811
242.854492	1310.479492	2835.880127	1719.259888	26.798231
243.228836	1309.045898	2893.442383	1740.211670	27.213249
243.603134	1312.905518	2957.290283	1775.278442	28.118294
243.977402	1312.023193	3046.721436	1820.269531	29.298832
244.351654	1310.920532	3168.241699	1870.774414	30.143084
244.725861	1310.810303	3315.235107	1931.093384	30.945690
245.100067	1311.912964	3466.970215	1992.074463	31.561182
245.474213	1311.361694	3603.377197	2057.245605	32.542706
245.848343	1316.985474	3710.341553	2109.735352	33.122940
246.222443	1318.198486	3794.700195	2157.262939	33.881035
246.596512	1318.419067	3855.019287	2193.652832	34.504208
246.970566	1321.286133	3892.181641	2211.958252	34.644432
247.344574	1320.845093	3904.862793	2223.646973	34.937916
247.718567	1317.206055	3891.740234	2228.829590	35.409260
248.092529	1318.749756	3859.430420	2227.175293	35.755203
248.466431	1315.441650	3833.075195	2225.852051	36.161354
248.840332	1313.236206	3807.051025	2224.197754	36.528835
249.214203	1311.030640	3809.476563	2221.771973	36.452316
249.588043	1313.787598	3825.797363	2234.894287	36.668118
249.961838	1310.038330	3853.696045	2242.393066	36.654095
250.335617	1313.677124	3886.888428	2259.595459	36.760227
250.709381	1313.456665	3901.664795	2273.489746	37.092579
251.083084	1318.198608	3899.569824	2278.672607	37.207901
251.456787	1314.780029	3882.367188	2270.732910	37.231564
251.830460	1316.434204	3829.656738	2250.112061	37.150623
252.204071	1313.456787	3746.069824	2217.802246	37.175888
252.577667	1310.038452	3638.995117	2172.259521	37.021774
252.951248	1310.369263	3513.615234	2127.489014	37.087086
253.324799	1308.604858	3406.099365	2081.174561	36.832977
253.698303	1305.737671	3326.152100	2045.997803	36.639023
254.071793	1305.296631	3267.817627	2016.995850	36.264542
254.445236	1304.083618	3233.853760	1995.492554	35.828564
254.818665	1300.113770	3219.959473	1987.111938	35.784031
255.192062	1300.003418	3219.077393	1986.891357	35.792675
255.565430	1300.444458	3243.888672	1999.021606	35.945316
255.938782	1301.878052	3283.365967	2015.562500	36.017601
256.312103	1304.745117	3340.266846	2031.331299	35.695328
256.685364	1306.730225	3419.442383	2065.405518	35.910015
257.058594	1304.965820	3518.357178	2108.963135	36.324226
257.431793	1302.098633	3646.714600	2157.813721	36.497025
257.804993	1302.760254	3790.178955	2212.288574	36.565147
258.178162	1299.672729	3928.240234	2262.793457	36.640518
258.551270	1298.128906	4052.517578	2309.438721	36.716309
258.924377	1294.379639	4145.587402	2351.011719	37.059105
259.297485	1293.938599	4222.999023	2377.146484	36.981411
259.670502	1293.056396	4286.625977	2400.083252	36.980160
260.043518	1295.151489	4346.063477	2425.114746	37.036900
260.416473	1298.569946	4394.473145	2448.272217	37.136246
260.789459	1297.026123	4449.830078	2467.569824	37.127068
261.162354	1297.246704	4497.467773	2480.802490	36.983562
261.535278	1298.349365	4541.796875	2496.902100	36.953049
261.908142	1298.790527	4576.092285	2508.039795	36.897709
262.280975	1301.216553	4595.279297	2516.641113	36.897430
262.653717	1302.870605	4609.834961	2519.508301	36.790165
263.026520	1300.113892	4627.809570	2523.588135	36.766407
263.399261	1297.357056	4643.688477	2517.302734	36.456211
263.771973	1296.915894	4654.495605	2515.538330	36.294670
264.144653	1298.239258	4653.502930	2512.671387	36.194836
264.517334	1301.106323	4633.103027	2504.731689	36.123249
264.889954	1302.208862	4586.678223	2485.323975	36.021500
265.262543	1305.627563	4506.179199	2449.264648	35.732498
265.635071	1308.053589	4405.610840	2409.566406	35.560696
266.007599	1311.802856	4310.224609	2361.597900	35.011585
266.380127	1312.133545	4240.201660	2323.774414	34.549774
266.752594	1315.882935	4205.575684	2297.860352	33.982067
267.125031	1315.000732	4197.084473	2293.559814	33.953178
267.497437	1313.236328	4212.963867	2290.141357	33.689545
267.869843	1316.544556	4239.098633	2290.913086	33.339622
268.242218	1313.567261	4277.473633	2297.639404	33.201866
268.614532	1311.913208	4335.697754	2313.408447	33.120586
268.986816	1312.354126	4430.973633	2340.756104	32.976192
269.359100	1311.471924	4539.150879	2373.065918	32.890324
269.731354	1310.038452	4652.510742	2404.714355	32.750488
270.103516	1311.030762	4749.219727	2433.495361	32.646973
270.475708	1311.361572	4830.049805	2463.379395	32.739979
270.847839	1314.890381	4902.499023	2481.022949	32.504452
271.219971	1318.419067	4961.053711	2505.282959	32.582565
271.592041	1320.403809	5006.596191	2515.979248	32.433887
271.964081	1321.065552	5036.369629	2523.919189	32.375645
272.336151	1316.434204	5064.048340	2524.360107	32.231865
272.708130	1316.654785	5090.182129	2525.242432	32.028061
273.080109	1313.015869	5107.385254	2527.557861	32.009060
273.452026	1311.582275	5141.238770	2534.946289	31.944485
273.823914	1310.369263	5176.085449	2547.517334	32.003075
274.195770	1310.369263	5215.893555	2560.860352	32.018520
274.567627	1309.376831	5261.987793	2569.351074	31.877012
274.939423	1310.700073	5304.332031	2578.173096	31.737352
275.311249	1312.243896	5345.464355	2590.413574	31.691044
275.682983	1310.479492	5376.120117	2596.698975	31.636330
276.054688	1309.707520	5401.151855	2600.889404	31.558094
276.426422	1307.943115	5403.577148	2592.288086	31.358881
276.798065	1312.243896	5370.495117	2578.945313	31.212986
277.169708	1313.236206	5325.172852	2560.750244	31.095058
277.541321	1317.757446	5277.536133	2544.099121	30.969954
277.912903	1316.985352	5267.832031	2540.570557	30.970201
278.284424	1316.764893	5279.741211	2535.828613	30.761318
278.655945	1315.882813	5301.685547	2546.194092	30.867340
279.027435	1312.574707	5332.010254	2553.141602	30.864206
279.398865	1310.920532	5391.226563	2574.423828	30.965895
279.770294	1307.502075	5467.424805	2601.771484	31.112822
280.141663	1310.810303	5539.763672	2629.670166	31.186438
280.513031	1313.015869	5615.631348	2658.892578	31.280434
280.884369	1315.993164	5680.912598	2693.297363	31.553944
281.255676	1314.559570	5725.462402	2706.971436	31.567503
281.626953	1313.787720	5763.727051	2727.923340	31.778761
281.998199	1316.654907	5805.189453	2741.707520	31.748728
282.369385	1313.346680	5856.245605	2764.092529	31.934362
282.740540	1313.236328	5915.572754	2784.493408	31.967613
283.111694	1311.802856	5983.280273	2812.723145	32.129456
283.482819	1310.479492	6070.064941	2844.701904	32.234371
283.853912	1314.559570	6165.339844	2878.555664	32.242153
284.224945	1315.441772	6257.858398	2918.364014	32.431953
284.595978	1313.346436	6348.502930	2960.047119	32.704063
284.966980	1311.030762	6425.914551	2992.136475	32.866940
285.337952	1309.817749	6500.238281	3025.218262	33.049355
285.708893	1306.730103	6535.746094	3046.169922	33.265144
286.079803	1305.406860	6558.352051	3069.989014	33.592243
286.450684	1304.745239	6574.893066	3082.780518	33.737862
286.821533	1307.391846	6588.677246	3101.967773	33.979908
287.192322	1306.399414	6596.506836	3117.957520	34.244259
287.563110	1307.391968	6602.571289	3132.844482	34.473858
287.933868	1303.642700	6627.272461	3159.089355	34.853035
288.304596	1299.672852	6668.735352	3193.604492	35.274902
288.675262	1300.885742	6725.304199	3219.628662	35.372326
289.045929	1301.326782	6777.683594	3256.569824	35.703354
289.416565	1300.113770	6826.645020	3295.827393	36.111504
289.787170	1296.805664	6843.957520	3328.027100	36.617374
290.157745	1293.718018	6845.170898	3350.632813	37.051826
290.528259	1293.497437	6840.870605	3377.318848	37.564110
290.898773	1294.820801	6830.614746	3387.794678	37.808018
291.269226	1294.269287	6813.852539	3400.476074	38.158802
291.639679	1290.630371	6797.202148	3420.655762	38.681515
292.010101	1294.820801	6810.876465	3451.532471	39.098801
292.380463	1293.828369	6840.539551	3486.267822	39.526836
292.750824	1298.680298	6882.332031	3522.767822	39.832130
293.121155	1300.775391	6928.756836	3567.869141	40.282539
293.491455	1307.502197	6990.068359	3613.742676	40.584488
293.861725	1310.920532	7072.000977	3666.453613	40.887005
294.231964	1313.125977	7184.479004	3728.426270	41.137032
294.602142	1314.669678	7298.721680	3784.444824	41.272625
294.972321	1314.669800	7398.077148	3845.977051	41.610023
295.342468	1316.213623	7496.991699	3900.341553	41.809101
295.712555	1317.095825	7559.295410	3941.252686	42.038975
296.082672	1318.419067	7583.776855	3961.652832	42.188076
296.452728	1315.882813	7585.761719	3978.635010	42.468956
296.822693	1319.080688	7589.400879	3996.830078	42.705147
297.192657	1321.065552	7589.180664	3996.608887	42.684975
297.562622	1322.388916	7606.824219	4010.503662	42.774162
297.932556	1326.027954	7627.886230	4025.610840	42.837887
298.302460	1328.233398	7634.833496	4031.125000	42.858143
298.672333	1327.792358	7640.347656	4046.011475	43.060524
299.042145	1329.005127	7636.597656	4051.745117	43.166073
299.411957	1330.218140	7623.033691	4051.083984	43.237652
299.781677	1326.027954	7584.768555	4041.379883	43.384960
300.151428	1326.579224	7523.125977	4024.839355	43.544579
300.521149	1326.248291	7458.727051	4001.461670	43.623688
300.890839	1322.829956	7386.829590	3968.821045	43.634422
301.260468	1317.095825	7310.961914	3930.997314	43.609604
301.630096	1318.418945	7223.515625	3887.550293	43.507015
301.999695	1319.080688	7102.436523	3840.573730	43.599136
302.369232	1316.323975	6976.063965	3789.296387	43.694096
302.738739	1314.449219	6859.727051	3728.757080	43.538086
303.108246	1310.699951	6722.106445	3674.613525	43.683907
303.477692	1311.251343	6610.841309	3619.257080	43.550652
303.847137	1311.361816	6522.182129	3575.478516	43.450294
304.216553	1311.361572	6456.680176	3543.609863	43.384064
304.585876	1310.369141	6397.794434	3510.307617	43.242668
304.955231	1309.597046	6350.267090	3487.370605	43.204048
305.324493	1306.619751	6311.010254	3467.741699	43.184521
305.693787	1306.178711	6280.244629	3454.399170	43.188419
306.063049	1306.509521	6274.399414	3453.847412	43.224346
306.432251	1307.391846	6272.414551	3448.002930	43.113823
306.801422	1305.627319	6267.783691	3442.709717	43.067619
307.170593	1304.524658	6268.334961	3443.040527	43.082142
307.539673	1303.642456	6275.171875	3444.584717	43.064060
307.908783	1304.304077	6290.831055	3441.166748	42.852730
308.277832	1302.650146	6307.150879	3448.003418	42.868477
308.646851	1300.444702	6338.357910	3455.612061	42.778973
309.015839	1303.973389	6378.717773	3473.255615	42.746632
309.384796	1298.239258	6410.586914	3491.230225	42.895966
309.753723	1295.151733	6446.205566	3506.558105	42.931145
310.122620	1294.600220	6472.339844	3519.460205	42.969711
310.491486	1296.144165	6484.690430	3525.084473	42.958862
310.860352	1299.342041	6501.231445	3527.399902	42.831703
311.229126	1299.452148	6515.456055	3532.803223	42.817280
311.597931	1298.680298	6523.726074	3529.163574	42.688301
311.966675	1300.224121	6544.016602	3534.456787	42.607189
312.335388	1300.665161	6579.523926	3552.541260	42.658386
312.704071	1298.680298	6617.236816	3569.523438	42.696609
313.072723	1301.326904	6632.564941	3571.177490	42.576424
313.441345	1301.988525	6630.139160	3569.412842	42.555561
313.809875	1302.650146	6611.061523	3554.416260	42.418835
314.178436	1298.459839	6573.018066	3540.190918	42.500828
314.546967	1304.193970	6535.194824	3529.936035	42.549068
314.915466	1304.635132	6494.283691	3503.911377	42.378139
315.283936	1308.604858	6440.911621	3478.548828	42.280090
315.652374	1309.266602	6398.125977	3454.950439	42.164337
316.020752	1307.943237	6345.084961	3429.808105	42.124382
316.389130	1313.236328	6299.542480	3412.275391	42.096073
