Jaz Data File
++++++++++++++++++++++++++++++++++++
Date: Thu Sep 26 04:31:44 2019
User: jaz
Dark Spectrum Present: Yes
Reference Spectrum Present: Yes
Processed Spectrum Present: Yes
Spectrometers: JAZA3541
Integration Time (usec): 100000 (JAZA3541)
Spectra Averaged: 1 (JAZA3541)
Boxcar Smoothing: 10 (JAZA3541)
Correct for Electrical Dark: No (JAZA3541)
Strobe/Lamp Enabled: Yes (JAZA3541)
Correct for Detector Non-linearity: No (JAZA3541)
Correct for Stray Light: No (JAZA3541)
Number of Pixels in Processed Spectrum: 2048
>>>>>Begin Processed Spectral Data<<<<<
W	D	R	S	P
190.543274	0.000000	0.000000	0.000000	0.000000
190.921555	0.000000	0.000000	0.000000	0.000000
191.299805	1296.805664	1336.172974	1106.916260	-482.353027
191.678024	1229.649658	1322.278564	1155.546509	-80.000023
192.056229	1345.435913	1313.015747	1141.652100	628.571167
192.434387	1331.541504	1278.279907	1148.599243	343.478729
192.812531	1303.752808	1324.594360	1185.650879	-566.665710
193.190659	1310.699951	1296.805664	1220.386719	650.002625
193.568741	1319.962891	1359.330200	1190.282349	-329.411743
193.946793	0.000000	0.000000	0.000000	0.000000
194.324829	1207.815674	1211.785522	1074.055176	-3369.410645
194.702835	1271.994385	1273.317627	1132.720093	-10525.230469
195.080811	1337.606445	1335.070313	1188.848877	5865.527344
195.458755	1337.827148	1332.203125	1190.943970	2611.709961
195.836685	1338.268188	1331.541626	1191.936523	2175.430176
196.214569	1339.811890	1336.172974	1192.156982	4057.661865
196.592422	1341.907104	1340.032471	1196.236938	7770.593262
196.970261	1342.679077	1342.127686	1196.237061	26558.623047
197.348068	1343.781860	1343.120117	1197.670532	22079.763672
197.725861	1344.222900	1342.127563	1200.427246	6862.650879
198.103622	1343.561279	1338.157837	1198.222046	2689.752686
198.481323	1340.253052	1337.496216	1197.780884	5167.959473
198.859039	1337.937378	1335.290771	1198.883667	5254.038086
199.236694	1335.070313	1335.621460	1196.236938	-25189.878906
199.614334	1333.416138	1335.511230	1193.149414	-6695.012695
199.991959	1329.115479	1337.937134	1193.811157	-1533.774780
200.369553	1324.373657	1337.826904	1194.141846	-968.032532
200.747101	1322.499023	1341.355835	1194.693237	-677.769836
201.124619	1320.514038	1341.576294	1193.370117	-603.657654
201.502136	1316.323608	1346.538452	1197.670654	-392.697571
201.879623	1313.677246	1349.736450	1198.994019	-318.041473
202.257065	1311.030640	1351.500854	1196.678223	-282.559448
202.634476	1309.927979	1352.934570	1196.237183	-264.356689
203.011871	1305.186279	1354.809082	1196.457642	-219.110229
203.389221	1303.091064	1361.866455	1196.237061	-181.800583
203.766571	1304.745117	1367.931519	1196.016602	-172.075821
204.143875	1300.334229	1365.064331	1200.096558	-154.854797
204.521164	1296.254272	1365.284912	1198.332275	-141.852951
204.898392	1297.798096	1363.300049	1194.252075	-158.080811
205.275620	1298.459717	1368.703369	1191.385132	-152.433105
205.652817	1293.718018	1368.482910	1188.848877	-140.265213
206.029984	1293.607666	1372.673218	1186.863892	-135.006683
206.407135	1291.953613	1374.988892	1184.989258	-128.817963
206.784225	1292.394775	1374.437378	1184.327637	-131.720764
207.161301	1293.607910	1372.893555	1187.194824	-134.214828
207.538376	1298.570190	1373.555176	1186.753662	-149.118561
207.915405	1302.209229	1370.798462	1184.217407	-172.026733
208.292404	1303.422119	1370.798584	1185.651001	-174.795639
208.669373	1305.406860	1366.718506	1183.445557	-198.920288
209.046310	1302.319336	1363.961670	1188.959229	-183.899765
209.423218	1303.863159	1361.645874	1187.194702	-201.908920
209.800095	1305.737793	1357.124756	1185.651001	-233.691162
210.176956	1308.715210	1353.265137	1187.084473	-273.021179
210.553787	1308.163818	1355.911743	1188.407593	-250.809280
210.930603	1309.597412	1356.242554	1186.091797	-264.777008
211.307358	1315.221313	1353.485718	1186.973999	-335.160889
211.684113	1317.316406	1349.846680	1189.951538	-391.527191
212.060837	1316.985596	1348.413086	1191.605469	-398.950500
212.437531	1316.765015	1350.839233	1193.480225	-361.812531
212.814178	1314.008179	1354.037109	1197.229492	-291.735718
213.190826	1312.574585	1351.280273	1197.670654	-296.865753
213.567413	1313.125977	1352.383057	1197.560303	-294.381744
213.943985	1310.258789	1357.345337	1200.978760	-232.083328
214.320541	1309.266479	1357.124756	1201.750732	-224.654449
214.697052	1307.612305	1361.315186	1199.324829	-201.641830
215.073563	1309.266357	1363.300049	1199.214478	-203.672699
215.449997	1303.863159	1360.874023	1203.184326	-176.595871
215.826431	1301.326904	1362.086914	1208.477539	-152.813278
216.202850	1300.334351	1364.954102	1207.484985	-143.685730
216.579224	1298.459717	1369.695923	1208.146606	-126.779785
216.955582	1300.885742	1374.989014	1205.389771	-128.868759
217.331894	1300.554932	1374.217041	1205.500000	-129.041824
217.708191	1300.003418	1376.863647	1202.522583	-126.828705
218.084442	1300.113770	1383.480103	1202.081421	-117.592255
218.460678	1296.915771	1384.141602	1200.427368	-110.619072
218.836899	1295.041260	1385.685303	1202.302124	-102.311340
219.213074	1292.615234	1387.339478	1206.161621	-91.268730
219.589233	1294.269287	1392.191650	1204.838379	-91.328377
219.965347	1296.805542	1398.697510	1204.728027	-90.367783
220.341431	1295.592529	1399.359131	1201.971191	-90.223000
220.717499	1296.254150	1400.241455	1202.743042	-89.925507
221.093552	1295.041260	1402.336548	1202.302002	-86.433670
221.469543	1299.011108	1407.078247	1201.750610	-90.000069
221.845535	1302.980835	1407.409058	1198.773193	-99.788773
222.221466	1305.296631	1411.709595	1197.780884	-101.036324
222.597397	1305.186279	1417.884766	1200.317139	-93.052841
222.973297	1302.760376	1426.706543	1199.214600	-83.540924
223.349167	1300.554932	1437.403076	1200.096680	-73.408562
223.725006	1297.467285	1446.996826	1196.457642	-67.551628
224.100800	1295.041260	1454.385010	1198.883545	-60.346085
224.476578	1295.372070	1465.081543	1205.169312	-53.151279
224.852325	1297.577515	1475.778076	1208.146606	-50.185535
225.228058	1298.680298	1495.847778	1207.926025	-46.029026
225.603760	1297.577637	1523.195313	1210.793091	-38.465313
225.979416	1295.261963	1552.086792	1210.903198	-32.846809
226.355057	1295.372192	1590.351318	1216.306641	-26.803778
226.730652	1296.805664	1642.069214	1226.562134	-20.344902
227.106232	1296.915894	1691.912231	1230.421509	-16.834177
227.481796	1294.159180	1736.903687	1235.825073	-13.175569
227.857315	1292.946167	1778.145630	1237.479126	-11.431802
228.232788	1296.033813	1815.638184	1244.316040	-9.953299
228.608246	1296.695435	1848.058350	1251.042725	-8.279975
228.983704	1297.026245	1883.345459	1257.217773	-6.789556
229.359100	1297.577637	1916.206665	1262.511108	-5.668426
229.734482	1293.166748	1945.870117	1269.127197	-3.683074
230.109833	1290.189453	1973.768921	1274.861572	-2.242297
230.485153	1290.189331	1989.979126	1279.051758	-1.591560
230.860443	1289.527710	2012.585205	1279.051880	-1.448824
231.235703	1293.166748	2031.331421	1279.492920	-1.852409
231.610931	1293.607788	2055.481445	1292.063965	-0.202635
231.986145	1293.056396	2079.300049	1296.364624	0.420764
232.361313	1290.189209	2098.708252	1296.585083	0.791060
232.736465	1287.983765	2121.313965	1300.224121	1.468848
233.111572	1285.888550	2134.656982	1307.502075	2.546457
233.486664	1288.865845	2141.052734	1315.551880	3.131477
233.861725	1290.409668	2141.604248	1321.837524	3.692206
234.236755	1292.284302	2138.957520	1322.499023	3.568640
234.611771	1296.474731	2120.873047	1321.947754	3.089893
234.986740	1298.900635	2101.023926	1322.057983	2.887006
235.361679	1299.782959	2083.710938	1327.020386	3.474481
235.736588	1298.570068	2073.235107	1326.799805	3.644122
236.111496	1297.908447	2069.375488	1330.659180	4.245254
236.486343	1298.459717	2071.139893	1335.070190	4.738115
236.861160	1301.106323	2071.250000	1338.819580	4.896912
237.235962	1300.334351	2079.961426	1343.561157	5.544549
237.610733	1302.760376	2089.996338	1352.603516	6.331410
237.985474	1301.437134	2106.978271	1359.550781	7.214237
238.360199	1300.665283	2140.501221	1370.357544	8.298319
238.734879	1301.767944	2177.662842	1383.700439	9.354147
239.109543	1300.334473	2227.616455	1403.218750	11.095252
239.484177	1304.635132	2281.650146	1418.436279	11.647840
239.858749	1310.810303	2350.680908	1438.064819	12.237534
240.233322	1311.361694	2434.047119	1461.773438	13.397497
240.607864	1313.126099	2511.899414	1488.128540	14.598460
240.982391	1314.559570	2592.618896	1518.563843	15.962034
241.356857	1316.213745	2651.063232	1538.964111	16.687302
241.731308	1315.000610	2704.435059	1560.357056	17.658728
242.105728	1317.977905	2744.684814	1577.780151	18.209925
242.480118	1312.354126	2785.926758	1594.431152	19.142391
242.854492	1310.479492	2835.880127	1612.074951	19.771557
243.228836	1309.045898	2893.442383	1631.041992	20.322948
243.603134	1312.905518	2957.290283	1658.830566	21.036747
243.977402	1312.023193	3046.721436	1688.824829	21.721451
244.351654	1310.920532	3168.241699	1727.089478	22.406946
244.725861	1310.810303	3315.235107	1773.734741	23.095127
245.100067	1311.912964	3466.970215	1824.018921	23.762987
245.474213	1311.361694	3603.377197	1865.371338	24.171286
245.848343	1316.985474	3710.341553	1907.605835	24.677498
246.222443	1318.198486	3794.700195	1933.629883	24.850836
246.596512	1318.419067	3855.019287	1963.734375	25.440166
246.970566	1321.286133	3892.181641	1980.164795	25.628372
247.344574	1320.845093	3904.862793	1988.324951	25.831089
247.718567	1317.206055	3891.740234	1993.728394	26.277466
248.092529	1318.749756	3859.430420	1995.051758	26.618929
248.466431	1315.441650	3833.075195	1988.766235	26.744345
248.840332	1313.236206	3807.051025	1977.738647	26.646021
249.214203	1311.030640	3809.476563	1978.621094	26.720230
249.588043	1313.787598	3825.797363	1986.670898	26.786652
249.961838	1310.038330	3853.696045	1998.249634	27.055971
250.335617	1313.677124	3886.888428	2008.174072	26.989502
250.709381	1313.456665	3901.664795	2014.790405	27.097271
251.083084	1318.198608	3899.569824	2014.239258	26.963991
251.456787	1314.780029	3882.367188	2007.953491	26.997076
251.830460	1316.434204	3829.656738	1996.264282	27.050133
252.204071	1313.456787	3746.069824	1971.894287	27.067087
252.577667	1310.038452	3638.995117	1937.709839	26.950756
252.951248	1310.369263	3513.615234	1902.312256	26.866858
253.324799	1308.604858	3406.099365	1873.972412	26.954422
253.698303	1305.737671	3326.152100	1847.066040	26.792936
254.071793	1305.296631	3267.817627	1829.863647	26.729244
254.445236	1304.083618	3233.853760	1814.866577	26.468590
254.818665	1300.113770	3219.959473	1807.698608	26.438835
255.192062	1300.003418	3219.077393	1806.154785	26.374771
255.565430	1300.444458	3243.888672	1809.462769	26.191557
255.938782	1301.878052	3283.365967	1819.828491	26.139469
256.312103	1304.745117	3340.266846	1834.163696	26.008987
256.685364	1306.730225	3419.442383	1861.180664	26.243540
257.058594	1304.965820	3518.357178	1887.976929	26.340174
257.431793	1302.098633	3646.714600	1915.545044	26.164047
257.804993	1302.760254	3790.178955	1955.133057	26.226900
258.178162	1299.672729	3928.240234	1996.264648	26.500820
258.551270	1298.128906	4052.517578	2035.190674	26.759541
258.924377	1294.379639	4145.587402	2063.751465	26.984068
259.297485	1293.938599	4222.999023	2090.547607	27.196741
259.670502	1293.056396	4286.625977	2109.293945	27.266363
260.043518	1295.151489	4346.063477	2127.268311	27.274363
260.416473	1298.569946	4394.473145	2147.117676	27.408728
260.789459	1297.026123	4449.830078	2159.908936	27.368744
261.162354	1297.246704	4497.467773	2173.913574	27.393946
261.535278	1298.349365	4541.796875	2187.366699	27.409641
261.908142	1298.790527	4576.092285	2194.975830	27.345219
262.280975	1301.216553	4595.279297	2197.953125	27.222815
262.653717	1302.870605	4609.834961	2199.607422	27.116615
263.026520	1300.113892	4627.809570	2198.614990	27.000698
263.399261	1297.357056	4643.688477	2197.181152	26.889868
263.771973	1296.915894	4654.495605	2194.976074	26.747250
264.144653	1298.239258	4653.502930	2194.093750	26.699972
264.517334	1301.106323	4633.103027	2185.492676	26.542234
264.889954	1302.208862	4586.678223	2177.001465	26.634214
265.262543	1305.627563	4506.179199	2160.791260	26.719259
265.635071	1308.053589	4405.610840	2130.025391	26.536131
266.007599	1311.802856	4310.224609	2097.936035	26.218231
266.380127	1312.133545	4240.201660	2066.398193	25.759806
266.752594	1315.882935	4205.575684	2048.423828	25.350130
267.125031	1315.000732	4197.084473	2039.712280	25.145403
267.497437	1313.236328	4212.963867	2037.286255	24.969585
267.869843	1316.544556	4239.098633	2039.050537	24.721731
268.242218	1313.567261	4277.473633	2046.328369	24.722816
268.614532	1311.913208	4335.697754	2062.428223	24.820385
268.986816	1312.354126	4430.973633	2079.630859	24.603088
269.359100	1311.471924	4539.150879	2103.449707	24.537067
269.731354	1310.038452	4652.510742	2130.356445	24.542253
270.103516	1311.030762	4749.219727	2155.277832	24.554993
270.475708	1311.361572	4830.049805	2178.324707	24.638817
270.847839	1314.890381	4902.499023	2195.527344	24.546629
271.219971	1318.419067	4961.053711	2218.574463	24.711657
271.592041	1320.403809	5006.596191	2233.902100	24.781622
271.964081	1321.065552	5036.369629	2242.172852	24.792244
272.336151	1316.434204	5064.048340	2245.260254	24.784462
272.708130	1316.654785	5090.182129	2242.172607	24.526596
273.080109	1313.015869	5107.385254	2243.165039	24.513933
273.452026	1311.582275	5141.238770	2249.891602	24.501135
273.823914	1310.369263	5176.085449	2252.979248	24.383837
274.195770	1310.369263	5215.893555	2266.432373	24.479763
274.567627	1309.376831	5261.987793	2277.790283	24.500603
274.939423	1310.700073	5304.332031	2285.509766	24.409103
275.311249	1312.243896	5345.464355	2292.346680	24.300749
275.682983	1310.479492	5376.120117	2299.514404	24.326668
276.054688	1309.707520	5401.151855	2301.168457	24.232542
276.426422	1307.943115	5403.577148	2302.491699	24.283140
276.798065	1312.243896	5370.495117	2293.118652	24.169888
277.169708	1313.236206	5325.172852	2278.121582	24.050365
277.541321	1317.757446	5277.536133	2266.542480	23.960556
277.912903	1316.985352	5267.832031	2264.337158	23.978451
278.284424	1316.764893	5279.741211	2267.424561	23.988527
278.655945	1315.882813	5301.685547	2276.025879	24.089077
279.027435	1312.574707	5332.010254	2280.547119	24.082296
279.398865	1310.920532	5391.226563	2295.434082	24.128424
279.770294	1307.502075	5467.424805	2315.393311	24.228603
280.141663	1310.810303	5539.763672	2339.102051	24.315516
280.513031	1313.015869	5615.631348	2364.354248	24.434868
280.884369	1315.993164	5680.912598	2381.005615	24.399361
281.255676	1314.559570	5725.462402	2391.922607	24.425001
281.626953	1313.787720	5763.727051	2406.809570	24.562622
281.998199	1316.654907	5805.189453	2420.042236	24.582350
282.369385	1313.346680	5856.245605	2434.046875	24.669273
282.740540	1313.236328	5915.572754	2452.903564	24.762796
283.111694	1311.802856	5983.280273	2472.201172	24.840071
283.482819	1310.479492	6070.064941	2492.381104	24.832029
283.853912	1314.559570	6165.339844	2517.522949	24.799379
284.224945	1315.441772	6257.858398	2536.600342	24.707724
284.595978	1313.346436	6348.502930	2570.674805	24.970989
284.966980	1311.030762	6425.914551	2599.786865	25.196196
285.337952	1309.817749	6500.238281	2626.803467	25.373392
285.708893	1306.730103	6535.746094	2643.564697	25.565701
286.079803	1305.406860	6558.352051	2651.394043	25.623476
286.450684	1304.745239	6574.893066	2666.832031	25.845324
286.821533	1307.391846	6588.677246	2677.308105	25.939070
287.192322	1306.399414	6596.506836	2683.262939	26.027138
287.563110	1307.391968	6602.571289	2694.400635	26.193800
287.933868	1303.642700	6627.272461	2708.956543	26.397663
288.304596	1299.672852	6668.735352	2729.246826	26.626137
288.675262	1300.885742	6725.304199	2751.411377	26.740665
289.045929	1301.326782	6777.683594	2783.390137	27.062943
289.416565	1300.113770	6826.645020	2807.650391	27.278170
289.787170	1296.805664	6843.957520	2826.286377	27.572361
290.157745	1293.718018	6845.170898	2841.283691	27.876768
290.528259	1293.497437	6840.870605	2850.656738	28.070211
290.898773	1294.820801	6830.614746	2860.802002	28.288286
291.269226	1294.269287	6813.852539	2875.357910	28.645073
291.639679	1290.630371	6797.202148	2885.723389	28.967079
292.010101	1294.820801	6810.876465	2908.439697	29.253130
292.380463	1293.828369	6840.539551	2928.619385	29.473160
292.750824	1298.680298	6882.332031	2952.438232	29.617855
293.121155	1300.775391	6928.756836	2979.785889	29.833263
293.491455	1307.502197	6990.068359	3012.977783	30.012419
293.861725	1310.920532	7072.000977	3052.345459	30.227402
294.231964	1313.125977	7184.479004	3094.690186	30.343332
294.602142	1314.669678	7298.721680	3139.571045	30.496082
294.972321	1314.669800	7398.077148	3182.577393	30.704958
295.342468	1316.213623	7496.991699	3226.796875	30.911694
295.712555	1317.095825	7559.295410	3257.342285	31.082737
296.082672	1318.419067	7583.776855	3274.765137	31.224810
296.452728	1315.882813	7585.761719	3285.020508	31.406311
296.822693	1319.080688	7589.400879	3284.910400	31.351345
297.192657	1321.065552	7589.180664	3290.975342	31.427465
297.562622	1322.388916	7606.824219	3305.751953	31.559923
297.932556	1326.027954	7627.886230	3319.645752	31.635395
298.302460	1328.233398	7634.833496	3324.498047	31.653580
298.672333	1327.792358	7640.347656	3337.620605	31.838585
299.042145	1329.005127	7636.597656	3337.289795	31.839161
299.411957	1330.218140	7623.033691	3337.841064	31.903414
299.781677	1326.027954	7584.768555	3328.798340	31.999575
300.151428	1326.579224	7523.125977	3311.044189	32.025337
300.521149	1326.248291	7458.727051	3291.967529	32.054237
300.890839	1322.829956	7386.829590	3265.833008	32.041611
301.260468	1317.095825	7310.961914	3234.515625	31.989700
301.630096	1318.418945	7223.515625	3205.072998	31.949589
301.999695	1319.080688	7102.436523	3164.823242	31.914732
302.369232	1316.323975	6976.063965	3125.125488	31.959091
302.738739	1314.449219	6859.727051	3082.229248	31.879017
303.108246	1310.699951	6722.106445	3033.378418	31.834211
303.477692	1311.251343	6610.841309	2988.607666	31.650682
303.847137	1311.361816	6522.182129	2959.716309	31.633301
304.216553	1311.361572	6456.680176	2933.581787	31.528082
304.585876	1310.369141	6397.794434	2912.960693	31.501034
304.955231	1309.597046	6350.267090	2896.419922	31.480396
305.324493	1306.619751	6311.010254	2874.255127	31.325199
305.693787	1306.178711	6280.244629	2857.824707	31.194721
306.063049	1306.509521	6274.399414	2854.847168	31.166908
306.432251	1307.391846	6272.414551	2843.488770	30.938368
306.801422	1305.627319	6267.783691	2841.834717	30.958466
307.170593	1304.524658	6268.334961	2839.298828	30.919273
307.539673	1303.642456	6275.171875	2840.180664	30.906752
307.908783	1304.304077	6290.831055	2844.040527	30.877934
308.277832	1302.650146	6307.150879	2851.869873	30.956528
308.646851	1300.444702	6338.357910	2863.889404	31.033579
309.015839	1303.973389	6378.717773	2876.019043	30.977831
309.384796	1298.239258	6410.586914	2885.612793	31.049797
309.753723	1295.151733	6446.205566	2893.993408	31.039118
310.122620	1294.600220	6472.339844	2903.146240	31.066568
310.491486	1296.144165	6484.690430	2911.637207	31.135754
310.860352	1299.342041	6501.231445	2917.591797	31.108883
311.229126	1299.452148	6515.456055	2925.421387	31.172699
311.597931	1298.680298	6523.726074	2924.869873	31.122972
311.966675	1300.224121	6544.016602	2935.787109	31.190460
312.335388	1300.665161	6579.523926	2949.350830	31.231857
312.704071	1298.680298	6617.236816	2962.252686	31.278645
313.072723	1301.326904	6632.564941	2969.861572	31.297319
313.441345	1301.988525	6630.139160	2974.052002	31.381687
313.809875	1302.650146	6611.061523	2971.956787	31.446445
314.178436	1298.459839	6573.018066	2964.237305	31.581366
314.546967	1304.193970	6535.194824	2950.343018	31.469103
314.915466	1304.635132	6494.283691	2940.308105	31.517992
315.283936	1308.604858	6440.911621	2920.679688	31.410337
315.652374	1309.266602	6398.125977	2900.279297	31.264624
316.020752	1307.943237	6345.084961	2874.364990	31.097433
316.389130	1313.236328	6299.542480	2851.869141	30.857166
