Jaz Data File
++++++++++++++++++++++++++++++++++++
Date: Thu Sep 26 04:31:21 2019
User: jaz
Dark Spectrum Present: Yes
Reference Spectrum Present: Yes
Processed Spectrum Present: Yes
Spectrometers: JAZA3541
Integration Time (usec): 100000 (JAZA3541)
Spectra Averaged: 1 (JAZA3541)
Boxcar Smoothing: 10 (JAZA3541)
Correct for Electrical Dark: No (JAZA3541)
Strobe/Lamp Enabled: Yes (JAZA3541)
Correct for Detector Non-linearity: No (JAZA3541)
Correct for Stray Light: No (JAZA3541)
Number of Pixels in Processed Spectrum: 2048
>>>>>Begin Processed Spectral Data<<<<<
W	D	R	S	P
190.543274	0.000000	0.000000	0.000000	0.000000
190.921555	0.000000	0.000000	0.000000	0.000000
191.299805	1296.805664	1336.172974	1095.337646	-511.764771
191.678024	1229.649658	1322.278564	1167.125122	-67.500023
192.056229	1345.435913	1313.015747	1187.966553	485.714233
192.434387	1331.541504	1278.279907	1262.069824	130.434845
192.812531	1303.752808	1324.594360	1174.072266	-622.221130
193.190659	1310.699951	1296.805664	1199.545166	800.003540
193.568741	1319.962891	1359.330200	1252.806885	-170.588257
193.946793	0.000000	0.000000	0.000000	0.000000
194.324829	1207.815674	1211.785522	1086.405640	-3058.303955
194.702835	1271.994385	1273.317627	1142.754883	-9766.881836
195.080811	1337.606445	1335.070313	1200.758301	5395.937500
195.458755	1337.827148	1332.203125	1208.477295	2299.952148
195.836685	1338.268188	1331.541626	1210.462280	1900.018188
196.214569	1339.811890	1336.172974	1211.344360	3530.379150
196.592422	1341.907104	1340.032471	1215.093628	6764.706543
196.970261	1342.679077	1342.127686	1218.291626	22558.822266
197.348068	1343.781860	1343.120117	1219.283936	18813.632813
197.725861	1344.222900	1342.127563	1218.291504	6010.078613
198.103622	1343.561279	1338.157837	1218.401733	2316.292725
198.481323	1340.253052	1337.496216	1220.607300	4339.966309
198.859039	1337.937378	1335.290771	1217.960693	4533.227051
199.236694	1335.070313	1335.621460	1217.960815	-21248.304688
199.614334	1333.416138	1335.511230	1214.652588	-5668.653320
199.991959	1329.115479	1337.937134	1214.873169	-1295.021240
200.369553	1324.373657	1337.826904	1216.527100	-801.639587
200.747101	1322.499023	1341.355835	1213.549805	-577.771179
201.124619	1320.514038	1341.576294	1215.314209	-499.470856
201.502136	1316.323608	1346.538452	1214.873047	-335.763977
201.879623	1313.677246	1349.736450	1213.439575	-277.980804
202.257065	1311.030640	1351.500854	1212.667725	-243.050140
202.634476	1309.927979	1352.934570	1215.093750	-220.510910
203.011871	1305.186279	1354.809082	1215.755249	-180.221649
203.389221	1303.091064	1361.866455	1210.682861	-157.222610
203.766571	1304.745117	1367.931519	1210.462280	-149.213806
204.143875	1300.334229	1365.064331	1207.705444	-143.100006
204.521164	1296.254272	1365.284912	1200.868530	-138.178848
204.898392	1297.798096	1363.300049	1199.104004	-150.673508
205.275620	1298.459717	1368.703369	1198.221802	-142.700317
205.652817	1293.718018	1368.482910	1198.332153	-127.581093
206.029984	1293.607666	1372.673218	1198.552490	-120.223251
206.407135	1291.953613	1374.988892	1197.229492	-114.076958
206.784225	1292.394775	1374.437378	1203.845947	-107.930298
207.161301	1293.607910	1372.893555	1203.845947	-113.213387
207.538376	1298.570190	1373.555176	1204.397339	-125.588943
207.915405	1302.209229	1370.798462	1200.978882	-147.589264
208.292404	1303.422119	1370.798584	1199.324829	-154.500961
208.669373	1305.406860	1366.718506	1205.169312	-163.488602
209.046310	1302.319336	1363.961670	1202.963867	-161.180573
209.423218	1303.863159	1361.645874	1197.670898	-183.778595
209.800095	1305.737793	1357.124756	1196.898926	-211.802490
210.176956	1308.715210	1353.265137	1194.583130	-256.189148
210.553787	1308.163818	1355.911743	1193.811157	-239.492416
210.930603	1309.597412	1356.242554	1194.031738	-247.755005
211.307358	1315.221313	1353.485718	1197.339844	-308.070831
211.684113	1317.316406	1349.846680	1197.450195	-368.475891
212.060837	1316.985596	1348.413086	1197.891113	-378.950012
212.437531	1316.765015	1350.839233	1196.016357	-354.369568
212.814178	1314.008179	1354.037109	1194.472412	-298.623444
213.190826	1312.574585	1351.280273	1194.913574	-303.988922
213.567413	1313.125977	1352.383057	1193.479980	-304.775574
213.943985	1310.258789	1357.345337	1191.936157	-251.287552
214.320541	1309.266479	1357.124756	1192.708008	-243.549240
214.697052	1307.612305	1361.315186	1188.407349	-221.971252
215.073563	1309.266357	1363.300049	1186.753296	-226.734573
215.449997	1303.863159	1360.874023	1187.084229	-204.836273
215.826431	1301.326904	1362.086914	1192.928711	-178.403839
216.202850	1300.334351	1364.954102	1190.502686	-169.966095
216.579224	1298.459717	1369.695923	1186.422729	-157.275345
216.955582	1300.885742	1374.989014	1186.312500	-154.612930
217.331894	1300.554932	1374.217041	1190.943970	-148.802368
217.708191	1300.003418	1376.863647	1192.598267	-139.740860
218.084442	1300.113770	1383.480103	1192.487793	-129.100052
218.460678	1296.915771	1384.141602	1192.487793	-119.721390
218.836899	1295.041260	1385.685303	1191.715820	-113.990326
219.213074	1292.615234	1387.339478	1189.510376	-108.847382
219.589233	1294.269287	1392.191650	1190.723389	-105.742851
219.965347	1296.805542	1398.697510	1194.472656	-100.432732
220.341431	1295.592529	1399.359131	1195.244629	-96.705391
220.717499	1296.254150	1400.241455	1196.236938	-96.182137
221.093552	1295.041260	1402.336548	1194.803467	-93.422363
221.469543	1299.011108	1407.078247	1194.252075	-96.938843
221.845535	1302.980835	1407.409058	1196.567749	-101.900696
222.221466	1305.296631	1411.709595	1198.442505	-100.414574
222.597397	1305.186279	1417.884766	1199.545410	-93.737610
222.973297	1302.760376	1426.706543	1202.853394	-80.605141
223.349167	1300.554932	1437.403076	1205.610352	-69.379517
223.725006	1297.467285	1446.996826	1203.404785	-62.905632
224.100800	1295.041260	1454.385010	1210.131470	-53.287178
224.476578	1295.372070	1465.081543	1211.895874	-49.187706
224.852325	1297.577515	1475.778076	1216.086182	-45.730122
225.228058	1298.680298	1495.847778	1219.173706	-40.324394
225.603760	1297.577637	1523.195313	1219.063477	-34.799648
225.979416	1295.261963	1552.086792	1223.584595	-27.909050
226.355057	1295.372192	1590.351318	1223.694824	-24.299131
226.730652	1296.805664	1642.069214	1227.885376	-19.961647
227.106232	1296.915894	1691.912231	1233.178345	-16.136238
227.481796	1294.159180	1736.903687	1236.817383	-12.951442
227.857315	1292.946167	1778.145630	1240.676880	-10.772742
228.232788	1296.033813	1815.638184	1248.065063	-9.231784
228.608246	1296.695435	1848.058350	1249.498657	-8.560020
228.983704	1297.026245	1883.345459	1251.152832	-7.823966
229.359100	1297.577637	1916.206665	1256.335693	-6.666668
229.734482	1293.166748	1945.870117	1256.225342	-5.659754
230.109833	1290.189453	1973.768921	1256.776733	-4.887906
230.485153	1290.189331	1989.979126	1260.305542	-4.270395
230.860443	1289.527710	2012.585205	1260.084961	-4.071979
231.235703	1293.166748	2031.331421	1262.069946	-4.212719
231.610931	1293.607788	2055.481445	1267.914307	-3.372407
231.986145	1293.056396	2079.300049	1270.450562	-2.875169
232.361313	1290.189209	2098.708252	1273.097046	-2.114009
232.736465	1287.983765	2121.313965	1277.287354	-1.283574
233.111572	1285.888550	2134.656982	1280.595581	-0.623606
233.486664	1288.865845	2141.052734	1283.462646	-0.634039
233.861725	1290.409668	2141.604248	1284.565430	-0.686593
234.236755	1292.284302	2138.957520	1286.881104	-0.638168
234.611771	1296.474731	2120.873047	1287.873657	-1.043315
234.986740	1298.900635	2101.023926	1290.630371	-1.031046
235.361679	1299.782959	2083.710938	1295.261719	-0.576742
235.736588	1298.570068	2073.235107	1292.835815	-0.740224
236.111496	1297.908447	2069.375488	1291.733032	-0.800477
236.486343	1298.459717	2071.139893	1296.585205	-0.242599
236.861160	1301.106323	2071.250000	1303.421997	0.300681
237.235962	1300.334351	2079.961426	1304.524658	0.537476
237.610733	1302.760376	2089.996338	1310.369141	0.966516
237.985474	1301.437134	2106.978271	1318.860107	2.162891
238.360199	1300.665283	2140.501221	1324.704468	2.862367
238.734879	1301.767944	2177.662842	1338.157837	4.154596
239.109543	1300.334473	2227.616455	1350.508301	5.410849
239.484177	1304.635132	2281.650146	1365.615601	6.241508
239.858749	1310.810303	2350.680908	1381.494995	6.797451
240.233322	1311.361694	2434.047119	1403.880249	8.240827
240.607864	1313.126099	2511.899414	1426.265747	9.437952
240.982391	1314.559570	2592.618896	1447.327759	10.388265
241.356857	1316.213745	2651.063232	1464.861206	11.135897
241.731308	1315.000610	2704.435059	1478.865845	11.793664
242.105728	1317.977905	2744.684814	1495.296387	12.428514
242.480118	1312.354126	2785.926758	1507.757202	13.260498
242.854492	1310.479492	2835.880127	1522.974854	13.930463
243.228836	1309.045898	2893.442383	1535.104736	14.267820
243.603134	1312.905518	2957.290283	1561.790771	15.135464
243.977402	1312.023193	3046.721436	1586.161133	15.803206
244.351654	1310.920532	3168.241699	1619.904419	16.635996
244.725861	1310.810303	3315.235107	1659.602661	17.401119
245.100067	1311.912964	3466.970215	1705.365723	18.257185
245.474213	1311.361694	3603.377197	1745.614990	18.946350
245.848343	1316.985474	3710.341553	1777.924805	19.259121
246.222443	1318.198486	3794.700195	1806.595825	19.721260
246.596512	1318.419067	3855.019287	1827.327026	20.062601
246.970566	1321.286133	3892.181641	1839.677612	20.163849
247.344574	1320.845093	3904.862793	1846.293945	20.334570
247.718567	1317.206055	3891.740234	1847.837646	20.610781
248.092529	1318.749756	3859.430420	1846.955200	20.789919
248.466431	1315.441650	3833.075195	1841.331421	20.888258
248.840332	1313.236206	3807.051025	1836.259155	20.972805
249.214203	1311.030640	3809.476563	1837.913086	21.088408
249.588043	1313.787598	3825.797363	1843.867920	21.101841
249.961838	1310.038330	3853.696045	1855.225830	21.433210
250.335617	1313.677124	3886.888428	1867.466187	21.521320
250.709381	1313.456665	3901.664795	1873.310669	21.630951
251.083084	1318.198608	3899.569824	1877.942017	21.683958
251.456787	1314.780029	3882.367188	1867.466309	21.525513
251.830460	1316.434204	3829.656738	1857.982910	21.547979
252.204071	1313.456787	3746.069824	1836.590088	21.504995
252.577667	1310.038452	3638.995117	1810.565674	21.491480
252.951248	1310.369263	3513.615234	1777.594116	21.206203
253.324799	1308.604858	3406.099365	1752.010986	21.139797
253.698303	1305.737671	3326.152100	1725.986572	20.800133
254.071793	1305.296631	3267.817627	1708.122437	20.525936
254.445236	1304.083618	3233.853760	1696.543701	20.337141
254.818665	1300.113770	3219.959473	1692.684326	20.448027
255.192062	1300.003418	3219.077393	1691.912354	20.421774
255.565430	1300.444458	3243.888672	1695.551514	20.330250
255.938782	1301.878052	3283.365967	1699.190430	20.051214
256.312103	1304.745117	3340.266846	1711.210205	19.968596
256.685364	1306.730225	3419.442383	1730.728394	20.068903
257.058594	1304.965820	3518.357178	1754.877930	20.326822
257.431793	1302.098633	3646.714600	1784.761963	20.586029
257.804993	1302.760254	3790.178955	1819.828491	20.787342
258.178162	1299.672729	3928.240234	1854.233398	21.097448
258.551270	1298.128906	4052.517578	1884.117432	21.274721
258.924377	1294.379639	4145.587402	1906.502563	21.468899
259.297485	1293.938599	4222.999023	1930.211304	21.722757
259.670502	1293.056396	4286.625977	1943.774902	21.737209
260.043518	1295.151489	4346.063477	1956.125244	21.664791
260.416473	1298.569946	4394.473145	1967.814209	21.617092
260.789459	1297.026123	4449.830078	1981.157227	21.699133
261.162354	1297.246704	4497.467773	1995.382446	21.815233
261.535278	1298.349365	4541.796875	2009.938477	21.939283
261.908142	1298.790527	4576.092285	2015.893188	21.880886
262.280975	1301.216553	4595.279297	2021.075928	21.853239
262.653717	1302.870605	4609.834961	2025.045776	21.838009
263.026520	1300.113892	4627.809570	2027.030884	21.844454
263.399261	1297.357056	4643.688477	2027.361572	21.815069
263.771973	1296.915894	4654.495605	2030.669800	21.853657
264.144653	1298.239258	4653.502930	2027.361450	21.730698
264.517334	1301.106323	4633.103027	2025.597046	21.743441
264.889954	1302.208862	4586.678223	2017.657349	21.782774
265.262543	1305.627563	4506.179199	1998.028809	21.633808
265.635071	1308.053589	4405.610840	1966.380737	21.253107
266.007599	1311.802856	4310.224609	1933.078491	20.720087
266.380127	1312.133545	4240.201660	1911.465088	20.468498
266.752594	1315.882935	4205.575684	1900.217285	20.221331
267.125031	1315.000732	4197.084473	1893.490723	20.071936
267.497437	1313.236328	4212.963867	1895.475586	20.079102
267.869843	1316.544556	4239.098633	1901.209839	20.005285
268.242218	1313.567261	4277.473633	1905.510376	19.971722
268.614532	1311.913208	4335.697754	1911.575562	19.831516
268.986816	1312.354126	4430.973633	1927.675415	19.730566
269.359100	1311.471924	4539.150879	1947.634644	19.709604
269.731354	1310.038452	4652.510742	1973.989746	19.864079
270.103516	1311.030762	4749.219727	1991.192383	19.782555
270.475708	1311.361572	4830.049805	2006.520142	19.756186
270.847839	1314.890381	4902.499023	2022.840454	19.733202
271.219971	1318.419067	4961.053711	2037.285889	19.734804
271.592041	1320.403809	5006.596191	2044.233032	19.636230
271.964081	1321.065552	5036.369629	2052.172852	19.678263
272.336151	1316.434204	5064.048340	2047.431030	19.505659
272.708130	1316.654785	5090.182129	2045.997559	19.327879
273.080109	1313.015869	5107.385254	2045.115479	19.294369
273.452026	1311.582275	5141.238770	2051.621582	19.323908
273.823914	1310.369263	5176.085449	2060.994873	19.417503
274.195770	1310.369263	5215.893555	2065.957031	19.346640
274.567627	1309.376831	5261.987793	2069.485596	19.230549
274.939423	1310.700073	5304.332031	2073.014404	19.088247
275.311249	1312.243896	5345.464355	2082.166992	19.089537
275.682983	1310.479492	5376.120117	2089.114258	19.151588
276.054688	1309.707520	5401.151855	2093.304443	19.152086
276.426422	1307.943115	5403.577148	2094.627686	19.207882
276.798065	1312.243896	5370.495117	2084.593262	19.031582
277.169708	1313.236206	5325.172852	2074.337891	18.970930
277.541321	1317.757446	5277.536133	2063.531006	18.833717
277.912903	1316.985352	5267.832031	2062.538574	18.870720
278.284424	1316.764893	5279.741211	2063.090088	18.832441
278.655945	1315.882813	5301.685547	2063.420654	18.755014
279.027435	1312.574707	5332.010254	2071.139648	18.872425
279.398865	1310.920532	5391.226563	2083.710449	18.939508
279.770294	1307.502075	5467.424805	2094.297119	18.913692
280.141663	1310.810303	5539.763672	2114.035889	18.993484
280.513031	1313.015869	5615.631348	2132.561523	19.047617
280.884369	1315.993164	5680.912598	2152.852051	19.172379
281.255676	1314.559570	5725.462402	2159.357666	19.152498
281.626953	1313.787720	5763.727051	2167.517822	19.185207
281.998199	1316.654907	5805.189453	2176.780762	19.162731
282.369385	1313.346680	5856.245605	2188.028564	19.253826
282.740540	1313.236328	5915.572754	2203.577148	19.345409
283.111694	1311.802856	5983.280273	2220.228516	19.446217
283.482819	1310.479492	6070.064941	2238.864502	19.505585
283.853912	1314.559570	6165.339844	2261.911377	19.529884
284.224945	1315.441772	6257.858398	2282.752686	19.571619
284.595978	1313.346436	6348.502930	2305.579346	19.706100
284.966980	1311.030762	6425.914551	2325.648682	19.836578
285.337952	1309.817749	6500.238281	2339.212158	19.832582
285.708893	1306.730103	6535.746094	2348.254395	19.918169
286.079803	1305.406860	6558.352051	2357.737793	20.033159
286.450684	1304.745239	6574.893066	2369.647461	20.206306
286.821533	1307.391846	6588.677246	2381.777588	20.343264
287.192322	1306.399414	6596.506836	2389.386475	20.471930
287.563110	1307.391968	6602.571289	2404.824463	20.725124
287.933868	1303.642700	6627.272461	2418.939453	20.949930
288.304596	1299.672852	6668.735352	2434.046875	21.127972
288.675262	1300.885742	6725.304199	2457.314453	21.318943
289.045929	1301.326782	6777.683594	2488.301025	21.674522
289.416565	1300.113770	6826.645020	2508.149902	21.858849
289.787170	1296.805664	6843.957520	2528.109131	22.197039
290.157745	1293.718018	6845.170898	2548.068604	22.594995
290.528259	1293.497437	6840.870605	2563.947998	22.901840
290.898773	1294.820801	6830.614746	2570.343750	23.041374
291.269226	1294.269287	6813.852539	2577.621826	23.250896
291.639679	1290.630371	6797.202148	2588.428467	23.568169
292.010101	1294.820801	6810.876465	2607.836426	23.803524
292.380463	1293.828369	6840.539551	2628.016357	24.053679
292.750824	1298.680298	6882.332031	2652.055908	24.238180
293.121155	1300.775391	6928.756836	2682.490967	24.550819
293.491455	1307.502197	6990.068359	2714.911133	24.767136
293.861725	1310.920532	7072.000977	2747.331055	24.933004
294.231964	1313.125977	7184.479004	2783.500488	25.043198
294.602142	1314.669678	7298.721680	2816.471924	25.096746
294.972321	1314.669800	7398.077148	2851.428711	25.261484
295.342468	1316.213623	7496.991699	2879.437988	25.291708
295.712555	1317.095825	7559.295410	2904.139160	25.424425
296.082672	1318.419067	7583.776855	2922.444336	25.601494
296.452728	1315.882813	7585.761719	2924.760254	25.660423
296.822693	1319.080688	7589.400879	2930.384033	25.697306
297.192657	1321.065552	7589.180664	2936.228516	25.767921
297.562622	1322.388916	7606.824219	2940.749512	25.751884
297.932556	1326.027954	7627.886230	2939.867432	25.608946
298.302460	1328.233398	7634.833496	2945.822021	25.649139
298.672333	1327.792358	7640.347656	2950.012207	25.698307
299.042145	1329.005127	7636.597656	2952.769043	25.743006
299.411957	1330.218140	7623.033691	2949.791748	25.736868
299.781677	1326.027954	7584.768555	2939.757080	25.783607
300.151428	1326.579224	7523.125977	2924.208496	25.782574
300.521149	1326.248291	7458.727051	2906.454590	25.767824
300.890839	1322.829956	7386.829590	2885.392578	25.767855
301.260468	1317.095825	7310.961914	2863.007080	25.791553
301.630096	1318.418945	7223.515625	2842.386230	25.807661
301.999695	1319.080688	7102.436523	2808.973877	25.761742
302.369232	1316.323975	6976.063965	2776.333008	25.796396
302.738739	1314.449219	6859.727051	2744.684814	25.791956
303.108246	1310.699951	6722.106445	2712.154297	25.898155
303.477692	1311.251343	6610.841309	2683.483398	25.893175
303.847137	1311.361816	6522.182129	2657.900391	25.841202
304.216553	1311.361572	6456.680176	2641.910645	25.859411
304.585876	1310.369141	6397.794434	2620.407471	25.750517
304.955231	1309.597046	6350.267090	2607.395264	25.746542
305.324493	1306.619751	6311.010254	2594.272949	25.730469
305.693787	1306.178711	6280.244629	2587.876953	25.767616
306.063049	1306.509521	6274.399414	2577.180420	25.577679
306.432251	1307.391846	6272.414551	2575.526367	25.541365
306.801422	1305.627319	6267.783691	2567.586670	25.431673
307.170593	1304.524658	6268.334961	2564.829834	25.389874
307.539673	1303.642456	6275.171875	2570.674316	25.485756
307.908783	1304.304077	6290.831055	2574.974854	25.482080
308.277832	1302.650146	6307.150879	2580.708984	25.538187
308.646851	1300.444702	6338.357910	2590.082275	25.598646
309.015839	1303.973389	6378.717773	2599.124756	25.521511
309.384796	1298.239258	6410.586914	2605.851318	25.577526
309.753723	1295.151733	6446.205566	2618.091797	25.682901
310.122620	1294.600220	6472.339844	2623.936279	25.674061
310.491486	1296.144165	6484.690430	2623.715576	25.586576
310.860352	1299.342041	6501.231445	2624.487549	25.474310
311.229126	1299.452148	6515.456055	2622.502686	25.365213
311.597931	1298.680298	6523.726074	2623.495117	25.355085
311.966675	1300.224121	6544.016602	2623.715820	25.239208
312.335388	1300.665161	6579.523926	2627.465088	25.134218
312.704071	1298.680298	6617.236816	2633.970947	25.106260
313.072723	1301.326904	6632.564941	2640.366699	25.116863
313.441345	1301.988525	6630.139160	2638.823242	25.090033
313.809875	1302.650146	6611.061523	2630.111816	25.006762
314.178436	1298.459839	6573.018066	2622.172119	25.096174
314.546967	1304.193970	6535.194824	2617.650635	25.109089
314.915466	1304.635132	6494.283691	2605.410645	25.064810
315.283936	1308.604858	6440.911621	2589.090332	24.949512
315.652374	1309.266602	6398.125977	2573.321289	24.839647
316.020752	1307.943237	6345.084961	2553.692627	24.731276
316.389130	1313.236328	6299.542480	2538.585205	24.574282
