Jaz Data File
++++++++++++++++++++++++++++++++++++
Date: Thu Sep 26 04:30:58 2019
User: jaz
Dark Spectrum Present: Yes
Reference Spectrum Present: Yes
Processed Spectrum Present: Yes
Spectrometers: JAZA3541
Integration Time (usec): 100000 (JAZA3541)
Spectra Averaged: 1 (JAZA3541)
Boxcar Smoothing: 10 (JAZA3541)
Correct for Electrical Dark: No (JAZA3541)
Strobe/Lamp Enabled: Yes (JAZA3541)
Correct for Detector Non-linearity: No (JAZA3541)
Correct for Stray Light: No (JAZA3541)
Number of Pixels in Processed Spectrum: 2048
>>>>>Begin Processed Spectral Data<<<<<
W	D	R	S	P
190.543274	0.000000	0.000000	0.000000	0.000000
190.921555	0.000000	0.000000	0.000000	0.000000
191.299805	1296.805664	1336.172974	1160.177856	-347.059052
191.678024	1229.649658	1322.278564	1174.072266	-60.000053
192.056229	1345.435913	1313.015747	1225.018188	371.428467
192.434387	1331.541504	1278.279907	1199.545166	247.826477
192.812531	1303.752808	1324.594360	1187.966553	-555.554810
193.190659	1310.699951	1296.805664	1190.282349	866.669861
193.568741	1319.962891	1359.330200	1141.652100	-452.941254
193.946793	0.000000	0.000000	0.000000	0.000000
194.324829	1207.815674	1211.785522	1084.861694	-3097.195557
194.702835	1271.994385	1273.317627	1140.218506	-9958.560547
195.080811	1337.606445	1335.070313	1198.111694	5500.293457
195.458755	1337.827148	1332.203125	1196.788452	2507.790039
195.836685	1338.268188	1331.541626	1200.207031	2052.477051
196.214569	1339.811890	1336.172974	1201.750732	3794.018799
196.592422	1341.907104	1340.032471	1201.530151	7488.233398
196.970261	1342.679077	1342.127686	1206.933594	24618.707031
197.348068	1343.781860	1343.120117	1206.823242	20696.642578
197.725861	1344.222900	1342.127563	1211.454712	6336.364746
198.103622	1343.561279	1338.157837	1212.888306	2418.328369
198.481323	1340.253052	1337.496216	1209.690430	4735.958984
198.859039	1337.937378	1335.290771	1210.462280	4816.548828
199.236694	1335.070313	1335.621460	1208.587646	-22948.970703
199.614334	1333.416138	1335.511230	1211.895752	-5800.238770
199.991959	1329.115479	1337.937134	1214.762817	-1296.272217
200.369553	1324.373657	1337.826904	1214.432129	-817.211853
200.747101	1322.499023	1341.355835	1214.321899	-573.676636
201.124619	1320.514038	1341.576294	1215.755371	-497.376282
201.502136	1316.323608	1346.538452	1214.101196	-338.318512
201.879623	1313.677246	1349.736450	1212.777954	-279.815643
202.257065	1311.030640	1351.500854	1217.519775	-231.060959
202.634476	1309.927979	1352.934570	1222.592163	-203.075409
203.011871	1305.186279	1354.809082	1223.584717	-164.443680
203.389221	1303.091064	1361.866455	1226.231323	-130.768570
203.766571	1304.745117	1367.931519	1227.554565	-122.163231
204.143875	1300.334229	1365.064331	1227.554565	-112.435577
204.521164	1296.254272	1365.284912	1230.090820	-95.846497
204.898392	1297.798096	1363.300049	1227.113403	-107.912346
205.275620	1298.459717	1368.703369	1228.988037	-98.901009
205.652817	1293.718018	1368.482910	1228.326294	-87.463142
206.029984	1293.607666	1372.673218	1228.216064	-82.705551
206.407135	1291.953613	1374.988892	1227.444214	-77.689148
206.784225	1292.394775	1374.437378	1227.113403	-79.570091
207.161301	1293.607910	1372.893555	1226.782593	-84.284256
207.538376	1298.570190	1373.555176	1226.782593	-95.735962
207.915405	1302.209229	1370.798462	1221.489624	-117.685532
208.292404	1303.422119	1370.798584	1220.056030	-123.731766
208.669373	1305.406860	1366.718506	1218.071289	-142.445328
209.046310	1302.319336	1363.961670	1220.938110	-132.021652
209.423218	1303.863159	1361.645874	1224.467041	-137.404617
209.800095	1305.737793	1357.124756	1225.790161	-155.579605
210.176956	1308.715210	1353.265137	1226.120972	-185.397018
210.553787	1308.163818	1355.911743	1226.231323	-171.593842
210.930603	1309.597412	1356.242554	1226.120850	-178.960892
211.307358	1315.221313	1353.485718	1227.223633	-229.972687
211.684113	1317.316406	1349.846680	1224.577148	-285.085999
212.060837	1316.985596	1348.413086	1222.481812	-300.704193
212.437531	1316.765015	1350.839233	1219.945557	-284.142853
212.814178	1314.008179	1354.037109	1215.975708	-244.904053
213.190826	1312.574585	1351.280273	1215.865479	-249.857605
213.567413	1313.125977	1352.383057	1215.865479	-247.752762
213.943985	1310.258789	1357.345337	1213.770386	-204.917130
214.320541	1309.266479	1357.124756	1212.226563	-202.765167
214.697052	1307.612305	1361.315186	1208.697998	-184.188080
215.073563	1309.266357	1363.300049	1205.830688	-191.428101
215.449997	1303.863159	1360.874023	1203.404785	-176.209183
215.826431	1301.326904	1362.086914	1210.131470	-150.091217
216.202850	1300.334351	1364.954102	1208.036133	-142.832825
216.579224	1298.459717	1369.695923	1211.344360	-122.290840
216.955582	1300.885742	1374.989014	1205.830811	-128.273590
217.331894	1300.554932	1374.217041	1201.860962	-133.982010
217.708191	1300.003418	1376.863647	1203.845947	-125.106926
218.084442	1300.113770	1383.480103	1201.750732	-117.988922
218.460678	1296.915771	1384.141602	1201.199463	-109.733902
218.836899	1295.041260	1385.685303	1199.435059	-105.474335
219.213074	1292.615234	1387.339478	1200.978760	-96.740257
219.589233	1294.269287	1392.191650	1201.419922	-94.819366
219.965347	1296.805542	1398.697510	1202.412354	-92.640457
220.341431	1295.592529	1399.359131	1202.963623	-89.266586
220.717499	1296.254150	1400.241455	1208.587524	-84.305122
221.093552	1295.041260	1402.336548	1205.720459	-83.247643
221.469543	1299.011108	1407.078247	1204.617798	-87.346916
221.845535	1302.980835	1407.409058	1207.705444	-91.235291
222.221466	1305.296631	1411.709595	1210.462280	-89.119171
222.597397	1305.186279	1417.884766	1212.888062	-81.898369
222.973297	1302.760376	1426.706543	1216.306641	-69.751038
223.349167	1300.554932	1437.403076	1216.858032	-61.160419
223.725006	1297.467285	1446.996826	1215.865479	-54.572365
224.100800	1295.041260	1454.385010	1219.614746	-47.335720
224.476578	1295.372070	1465.081543	1221.599609	-43.469856
224.852325	1297.577515	1475.778076	1225.569458	-40.408436
225.228058	1298.680298	1495.847778	1228.546753	-35.570545
225.603760	1297.577637	1523.195313	1230.311279	-29.814312
225.979416	1295.261963	1552.086792	1235.383789	-23.314791
226.355057	1295.372192	1590.351318	1238.361084	-19.327168
226.730652	1296.805664	1642.069214	1246.411133	-14.595961
227.106232	1296.915894	1691.912231	1251.483521	-11.501973
227.481796	1294.159180	1736.903687	1261.187500	-7.447112
227.857315	1292.946167	1778.145630	1270.781250	-4.568207
228.232788	1296.033813	1815.638184	1277.618164	-3.544168
228.608246	1296.695435	1848.058350	1281.918701	-2.680037
228.983704	1297.026245	1883.345459	1293.387085	-0.620679
229.359100	1297.577637	1916.206665	1299.672607	0.338647
229.734482	1293.166748	1945.870117	1302.870483	1.486699
230.109833	1290.189453	1973.768921	1306.289063	2.355192
230.485153	1290.189331	1989.979126	1312.133545	3.135829
230.860443	1289.527710	2012.585205	1320.073242	4.224495
231.235703	1293.166748	2031.331421	1325.366211	4.362098
231.610931	1293.607788	2055.481445	1332.864746	5.152686
231.986145	1293.056396	2079.300049	1337.716919	5.680240
232.361313	1290.189209	2098.708252	1344.774292	6.751243
232.736465	1287.983765	2121.313965	1349.405640	7.370653
233.111572	1285.888550	2134.656982	1357.124756	8.392891
233.486664	1288.865845	2141.052734	1362.969116	8.695660
233.861725	1290.409668	2141.604248	1366.608032	8.951933
234.236755	1292.284302	2138.957520	1370.026611	9.182092
234.611771	1296.474731	2120.873047	1372.562866	9.229535
234.986740	1298.900635	2101.023926	1373.665649	9.320889
235.361679	1299.782959	2083.710938	1378.407349	10.029543
235.736588	1298.570068	2073.235107	1374.657959	9.822038
236.111496	1297.908447	2069.375488	1382.377197	10.949107
236.486343	1298.459717	2071.139893	1387.449707	11.517054
236.861160	1301.106323	2071.250000	1393.404297	11.984513
237.235962	1300.334351	2079.961426	1405.865112	13.536057
237.610733	1302.760376	2089.996338	1417.002563	14.511810
237.985474	1301.437134	2106.978271	1429.683960	15.920581
238.360199	1300.665283	2140.501221	1444.129761	17.082441
238.734879	1301.767944	2177.662842	1459.567993	18.015865
239.109543	1300.334473	2227.616455	1489.562012	20.406689
239.484177	1304.635132	2281.650146	1520.438477	22.088028
239.858749	1310.810303	2350.680908	1558.813110	23.849392
240.233322	1311.361694	2434.047119	1598.952393	25.616322
240.607864	1313.126099	2511.899414	1645.818237	27.752714
240.982391	1314.559570	2592.618896	1688.273193	29.240709
241.356857	1316.213745	2651.063232	1721.575562	30.367605
241.731308	1315.000610	2704.435059	1757.524414	31.849203
242.105728	1317.977905	2744.684814	1786.085205	32.810333
242.480118	1312.354126	2785.926758	1812.881470	33.966927
242.854492	1310.479492	2835.880127	1845.522095	35.075546
243.228836	1309.045898	2893.442383	1874.523804	35.690430
243.603134	1312.905518	2957.290283	1917.088867	36.742214
243.977402	1312.023193	3046.721436	1968.586304	37.848839
244.351654	1310.920532	3168.241699	2031.882813	38.817318
244.725861	1310.810303	3315.235107	2105.765381	39.660011
245.100067	1311.912964	3466.970215	2184.279297	40.479961
245.474213	1311.361694	3603.377197	2265.550293	41.630981
245.848343	1316.985474	3710.341553	2329.177734	42.291756
246.222443	1318.198486	3794.700195	2385.416748	43.093784
246.596512	1318.419067	3855.019287	2429.084473	43.785595
246.970566	1321.286133	3892.181641	2450.146484	43.909225
247.344574	1320.845093	3904.862793	2461.945801	44.159943
247.718567	1317.206055	3891.740234	2467.238770	44.669544
248.092529	1318.749756	3859.430420	2462.166504	45.004349
248.466431	1315.441650	3833.075195	2449.815674	45.057156
248.840332	1313.236206	3807.051025	2440.222168	45.191242
249.214203	1311.030640	3809.476563	2443.419922	45.323750
249.588043	1313.787598	3825.797363	2450.808105	45.263378
249.961838	1310.038330	3853.696045	2469.664551	45.588924
250.335617	1313.677124	3886.888428	2486.536377	45.579590
250.709381	1313.456665	3901.664795	2500.430908	45.860851
251.083084	1318.198608	3899.569824	2502.305664	45.871246
251.456787	1314.780029	3882.367188	2496.571533	46.027317
251.830460	1316.434204	3829.656738	2467.900635	45.816330
252.204071	1313.456787	3746.069824	2433.716064	46.051685
252.577667	1310.038452	3638.995117	2384.975830	46.155323
252.951248	1310.369263	3513.615234	2323.002686	45.960976
253.324799	1308.604858	3406.099365	2261.470703	45.428761
253.698303	1305.737671	3326.152100	2217.141113	45.109726
254.071793	1305.296631	3267.817627	2178.986572	44.518757
254.445236	1304.083618	3233.853760	2155.498535	44.120018
254.818665	1300.113770	3219.959473	2139.729492	43.733501
255.192062	1300.003418	3219.077393	2136.972656	43.613182
255.565430	1300.444458	3243.888672	2136.972656	43.043591
255.938782	1301.878052	3283.365967	2147.227783	42.662373
256.312103	1304.745117	3340.266846	2169.723633	42.494194
256.685364	1306.730225	3419.442383	2202.584717	42.403053
257.058594	1304.965820	3518.357178	2243.385498	42.397369
257.431793	1302.098633	3646.714600	2296.978027	42.432510
257.804993	1302.760254	3790.178955	2346.710938	41.969238
258.178162	1299.672729	3928.240234	2404.714111	42.039684
258.551270	1298.128906	4052.517578	2452.683105	41.916893
258.924377	1294.379639	4145.587402	2496.350830	42.156563
259.297485	1293.938599	4222.999023	2525.462891	42.045029
259.670502	1293.056396	4286.625977	2552.920654	42.085686
260.043518	1295.151489	4346.063477	2570.454102	41.800701
260.416473	1298.569946	4394.473145	2582.583984	41.474617
260.789459	1297.026123	4449.830078	2601.661377	41.380157
261.162354	1297.246704	4497.467773	2621.399902	41.376926
261.535278	1298.349365	4541.796875	2636.507080	41.257263
261.908142	1298.790527	4576.092285	2649.298828	41.207932
262.280975	1301.216553	4595.279297	2653.048096	41.038425
262.653717	1302.870605	4609.834961	2657.348633	40.958351
263.026520	1300.113892	4627.809570	2657.679443	40.795963
263.399261	1297.357056	4643.688477	2661.318604	40.759903
263.771973	1296.915894	4654.495605	2662.200928	40.662773
264.144653	1298.239258	4653.502930	2659.444092	40.569237
264.517334	1301.106323	4633.103027	2648.306641	40.432224
264.889954	1302.208862	4586.678223	2622.833740	40.208168
265.262543	1305.627563	4506.179199	2581.371094	39.860111
265.635071	1308.053589	4405.610840	2534.174561	39.583481
266.007599	1311.802856	4310.224609	2482.566895	39.046009
266.380127	1312.133545	4240.201660	2436.583252	38.402443
266.752594	1315.882935	4205.575684	2408.794434	37.821026
267.125031	1315.000732	4197.084473	2395.341309	37.484703
267.497437	1313.236328	4212.963867	2392.584717	37.222408
267.869843	1316.544556	4239.098633	2394.239014	36.875088
268.242218	1313.567261	4277.473633	2407.581787	36.911240
268.614532	1311.913208	4335.697754	2430.408203	36.989902
268.986816	1312.354126	4430.973633	2453.013672	36.575783
269.359100	1311.471924	4539.150879	2489.734375	36.504944
269.731354	1310.038452	4652.510742	2525.462646	36.363029
270.103516	1311.030762	4749.219727	2562.293701	36.393082
270.475708	1311.361572	4830.049805	2592.177734	36.400387
270.847839	1314.890381	4902.499023	2614.011475	36.211338
271.219971	1318.419067	4961.053711	2631.544922	36.048794
271.592041	1320.403809	5006.596191	2641.689941	35.844200
271.964081	1321.065552	5036.369629	2645.108154	35.637527
272.336151	1316.434204	5064.048340	2646.762695	35.498009
272.708130	1316.654785	5090.182129	2646.321533	35.236706
273.080109	1313.015869	5107.385254	2640.477051	34.985027
273.452026	1311.582275	5141.238770	2647.975586	34.895905
273.823914	1310.369263	5176.085449	2658.010498	34.861359
274.195770	1310.369263	5215.893555	2673.338135	34.898487
274.567627	1309.376831	5261.987793	2682.049561	34.728252
274.939423	1310.700073	5304.332031	2691.092041	34.564827
275.311249	1312.243896	5345.464355	2700.354980	34.416939
275.682983	1310.479492	5376.120117	2712.595215	34.486958
276.054688	1309.707520	5401.151855	2717.998779	34.420395
276.426422	1307.943115	5403.577148	2709.948730	34.231712
276.798065	1312.243896	5370.495117	2695.833984	34.093258
277.169708	1313.236206	5325.172852	2671.022949	33.843674
277.541321	1317.757446	5277.536133	2651.173828	33.674011
277.912903	1316.985352	5267.832031	2636.617676	33.401253
278.284424	1316.764893	5279.741211	2639.594971	33.379711
278.655945	1315.882813	5301.685547	2649.960938	33.470753
279.027435	1312.574707	5332.010254	2660.877930	33.544590
279.398865	1310.920532	5391.226563	2683.152832	33.630623
279.770294	1307.502075	5467.424805	2708.515625	33.678837
280.141663	1310.810303	5539.763672	2737.516846	33.736637
280.513031	1313.015869	5615.631348	2771.040039	33.886929
280.884369	1315.993164	5680.912598	2800.041748	33.999451
281.255676	1314.559570	5725.462402	2819.229248	34.112511
281.626953	1313.787720	5763.727051	2835.218506	34.189922
281.998199	1316.654907	5805.189453	2851.428955	34.193211
282.369385	1313.346680	5856.245605	2871.387939	34.296192
282.740540	1313.236328	5915.572754	2893.222168	34.330082
283.111694	1311.802856	5983.280273	2915.386963	34.327129
283.482819	1310.479492	6070.064941	2946.262939	34.368191
283.853912	1314.559570	6165.339844	2975.926514	34.249477
284.224945	1315.441772	6257.858398	3016.947998	34.426605
284.595978	1313.346436	6348.502930	3063.923828	34.767090
284.966980	1311.030762	6425.914551	3106.599365	35.104778
285.337952	1309.817749	6500.238281	3141.224609	35.284363
285.708893	1306.730103	6535.746094	3171.770508	35.667137
286.079803	1305.406860	6558.352051	3192.942627	35.932903
286.450684	1304.745239	6574.893066	3212.350830	36.196434
286.821533	1307.391846	6588.677246	3233.633545	36.472973
287.192322	1306.399414	6596.506836	3255.467285	36.843636
287.563110	1307.391968	6602.571289	3280.058350	37.254005
287.933868	1303.642700	6627.272461	3313.691650	37.757114
288.304596	1299.672852	6668.735352	3353.168945	38.246826
288.675262	1300.885742	6725.304199	3400.586426	38.708309
289.045929	1301.326782	6777.683594	3450.098633	39.237251
289.416565	1300.113770	6826.645020	3491.230225	39.647228
289.787170	1296.805664	6843.957520	3523.650391	40.143929
290.157745	1293.718018	6845.170898	3556.621338	40.762360
290.528259	1293.497437	6840.870605	3592.018555	41.434406
290.898773	1294.820801	6830.614746	3624.107910	42.076839
291.269226	1294.269287	6813.852539	3653.550537	42.743832
291.639679	1290.630371	6797.202148	3689.389404	43.561749
292.010101	1294.820801	6810.876465	3730.521240	44.156559
292.380463	1293.828369	6840.539551	3776.063965	44.751488
292.750824	1298.680298	6882.332031	3818.408447	45.126884
293.121155	1300.775391	6928.756836	3870.788330	45.664913
293.491455	1307.502197	6990.068359	3925.814453	46.076229
293.861725	1310.920532	7072.000977	3986.685303	46.445534
294.231964	1313.125977	7184.479004	4052.297363	46.653152
294.602142	1314.669678	7298.721680	4130.260254	47.051575
294.972321	1314.669800	7398.077148	4199.621582	47.423286
295.342468	1316.213623	7496.991699	4257.404297	47.586090
295.712555	1317.095825	7559.295410	4301.624023	47.812126
296.082672	1318.419067	7583.776855	4325.994141	48.003246
296.452728	1315.882813	7585.761719	4347.055664	48.344997
296.822693	1319.080688	7589.400879	4353.341309	48.390842
297.192657	1321.065552	7589.180664	4362.604492	48.523983
297.562622	1322.388916	7606.824219	4378.152832	48.624317
297.932556	1326.027954	7627.886230	4389.621094	48.614124
298.302460	1328.233398	7634.833496	4401.640137	48.733181
298.672333	1327.792358	7640.347656	4405.279297	48.751839
299.042145	1329.005127	7636.597656	4402.853516	48.732513
299.411957	1330.218140	7623.033691	4399.655273	48.776848
299.781677	1326.027954	7584.768555	4385.430664	48.882084
300.151428	1326.579224	7523.125977	4355.105469	48.874420
300.521149	1326.248291	7458.727051	4328.860352	48.962456
300.890839	1322.829956	7386.829590	4297.764160	49.058945
301.260468	1317.095825	7310.961914	4261.263672	49.119682
301.630096	1318.418945	7223.515625	4215.500488	49.060696
301.999695	1319.080688	7102.436523	4160.805176	49.136257
302.369232	1316.323975	6976.063965	4097.619141	49.141747
302.738739	1314.449219	6859.727051	4029.139893	48.954998
303.108246	1310.699951	6722.106445	3965.843750	49.065689
303.477692	1311.251343	6610.841309	3906.737061	48.975220
303.847137	1311.361816	6522.182129	3860.533203	48.920731
304.216553	1311.361572	6456.680176	3813.446777	48.628384
304.585876	1310.369141	6397.794434	3789.517578	48.730907
304.955231	1309.597046	6350.267090	3768.455811	48.780399
305.324493	1306.619751	6311.010254	3749.599365	48.816723
305.693787	1306.178711	6280.244629	3731.624512	48.761833
306.063049	1306.509521	6274.399414	3719.494385	48.571629
306.432251	1307.391846	6272.414551	3717.950439	48.550808
306.801422	1305.627319	6267.783691	3715.855713	48.572201
307.170593	1304.524658	6268.334961	3714.201172	48.544891
307.539673	1303.642456	6275.171875	3707.915527	48.360832
307.908783	1304.304077	6290.831055	3708.357178	48.210976
308.277832	1302.650146	6307.150879	3713.649902	48.176628
308.646851	1300.444702	6338.357910	3715.414551	47.935913
309.015839	1303.973389	6378.717773	3722.691895	47.661880
309.384796	1298.239258	6410.586914	3734.822266	47.660744
309.753723	1295.151733	6446.205566	3747.062500	47.600178
310.122620	1294.600220	6472.339844	3751.804199	47.457081
310.491486	1296.144165	6484.690430	3762.501221	47.534641
310.860352	1299.342041	6501.231445	3766.691162	47.431786
311.229126	1299.452148	6515.456055	3768.124512	47.328804
311.597931	1298.680298	6523.726074	3766.360107	47.227905
311.966675	1300.224121	6544.016602	3777.166748	47.235710
312.335388	1300.665161	6579.523926	3780.254395	46.972073
312.704071	1298.680298	6617.236816	3789.406982	46.830875
313.072723	1301.326904	6632.564941	3790.730225	46.694656
313.441345	1301.988525	6630.139160	3791.061035	46.715508
313.809875	1302.650146	6611.061523	3778.931152	46.648251
314.178436	1298.459839	6573.018066	3759.302734	46.654957
314.546967	1304.193970	6535.194824	3731.625000	46.404716
314.915466	1304.635132	6494.283691	3704.056641	46.234756
315.283936	1308.604858	6440.911621	3672.076904	46.050877
315.652374	1309.266602	6398.125977	3649.471436	45.986824
316.020752	1307.943237	6345.084961	3615.728027	45.815361
316.389130	1313.236328	6299.542480	3595.107422	45.762756
