Jaz Data File
++++++++++++++++++++++++++++++++++++
Date: Thu Sep 26 04:30:36 2019
User: jaz
Dark Spectrum Present: Yes
Reference Spectrum Present: Yes
Processed Spectrum Present: Yes
Spectrometers: JAZA3541
Integration Time (usec): 100000 (JAZA3541)
Spectra Averaged: 1 (JAZA3541)
Boxcar Smoothing: 10 (JAZA3541)
Correct for Electrical Dark: No (JAZA3541)
Strobe/Lamp Enabled: Yes (JAZA3541)
Correct for Detector Non-linearity: No (JAZA3541)
Correct for Stray Light: No (JAZA3541)
Number of Pixels in Processed Spectrum: 2048
>>>>>Begin Processed Spectral Data<<<<<
W	D	R	S	P
190.543274	0.000000	0.000000	0.000000	0.000000
190.921555	0.000000	0.000000	0.000000	0.000000
191.299805	1296.805664	1336.172974	1141.652100	-394.117767
191.678024	1229.649658	1322.278564	1185.650879	-47.500053
192.056229	1345.435913	1313.015747	1183.335205	499.999634
192.434387	1331.541504	1278.279907	1204.176636	239.130768
192.812531	1303.752808	1324.594360	1215.755249	-422.221710
193.190659	1310.699951	1296.805664	1204.176636	766.669861
193.568741	1319.962891	1359.330200	1206.492432	-288.235229
193.946793	0.000000	0.000000	0.000000	0.000000
194.324829	1207.815674	1211.785522	1093.352783	-2883.306152
194.702835	1271.994385	1273.317627	1150.143188	-9208.533203
195.080811	1337.606445	1335.070313	1209.028687	5069.835449
195.458755	1337.827148	1332.203125	1211.344482	2248.971191
195.836685	1338.268188	1331.541626	1212.006104	1877.067017
196.214569	1339.811890	1336.172974	1213.329224	3475.833496
196.592422	1341.907104	1340.032471	1217.299072	6647.060059
196.970261	1342.679077	1342.127686	1217.188843	22758.822266
197.348068	1343.781860	1343.120117	1218.953247	18863.605469
197.725861	1344.222900	1342.127563	1221.048340	5878.508789
198.103622	1343.561279	1338.157837	1214.983398	2379.554932
198.481323	1340.253052	1337.496216	1215.093506	4539.970703
198.859039	1337.937378	1335.290771	1211.895630	4762.391113
199.236694	1335.070313	1335.621460	1209.469604	-22788.947266
199.614334	1333.416138	1335.511230	1210.792847	-5852.881348
199.991959	1329.115479	1337.937134	1217.188843	-1268.771362
200.369553	1324.373657	1337.826904	1214.101196	-819.671692
200.747101	1322.499023	1341.355835	1213.660156	-577.185974
201.124619	1320.514038	1341.576294	1214.211548	-504.706116
201.502136	1316.323608	1346.538452	1216.416992	-330.654083
201.879623	1313.677246	1349.736450	1217.629883	-266.360199
202.257065	1311.030640	1351.500854	1218.842896	-227.791580
202.634476	1309.927979	1352.934570	1218.953125	-211.537003
203.011871	1305.186279	1354.809082	1218.732666	-174.221542
203.389221	1303.091064	1361.866455	1220.496948	-140.524994
203.766571	1304.745117	1367.931519	1223.363892	-128.795471
204.143875	1300.334229	1365.064331	1221.048218	-122.487076
204.521164	1296.254272	1365.284912	1220.496948	-109.744492
204.898392	1297.798096	1363.300049	1220.827881	-117.508278
205.275620	1298.459717	1368.703369	1217.188721	-115.698708
205.652817	1293.718018	1368.482910	1215.314209	-104.867142
206.029984	1293.607666	1372.673218	1222.151123	-90.376328
206.407135	1291.953613	1374.988892	1220.497070	-86.055641
206.784225	1292.394775	1374.437378	1221.048340	-86.962669
207.161301	1293.607910	1372.893555	1221.599609	-90.821358
207.538376	1298.570190	1373.555176	1219.945435	-104.853996
207.915405	1302.209229	1370.798462	1216.086060	-125.563683
208.292404	1303.422119	1370.798584	1218.842773	-125.532478
208.669373	1305.406860	1366.718506	1217.078369	-144.064789
209.046310	1302.319336	1363.961670	1216.086060	-139.892944
209.423218	1303.863159	1361.645874	1215.975586	-152.100113
209.800095	1305.737793	1357.124756	1214.542236	-177.468277
210.176956	1308.715210	1353.265137	1211.454590	-218.318253
210.553787	1308.163818	1355.911743	1210.131348	-205.312531
210.930603	1309.597412	1356.242554	1208.587646	-216.549377
211.307358	1315.221313	1353.485718	1208.036255	-280.116882
211.684113	1317.316406	1349.846680	1204.948608	-345.425323
212.060837	1316.985596	1348.413086	1207.815796	-347.370392
212.437531	1316.765015	1350.839233	1201.530273	-338.187469
212.814178	1314.008179	1354.037109	1196.678223	-293.112885
213.190826	1312.574585	1351.280273	1200.537842	-289.458069
213.567413	1313.125977	1352.383057	1201.530273	-284.268982
213.943985	1310.258789	1357.345337	1197.229492	-240.045837
214.320541	1309.266479	1357.124756	1194.582886	-239.631683
214.697052	1307.612305	1361.315186	1197.449951	-205.133041
215.073563	1309.266357	1363.300049	1197.560181	-206.734299
215.449997	1303.863159	1360.874023	1199.545166	-182.979141
215.826431	1301.326904	1362.086914	1203.073975	-161.706573
216.202850	1300.334351	1364.954102	1202.963623	-150.682617
216.579224	1298.459717	1369.695923	1205.279419	-130.804688
216.955582	1300.885742	1374.989014	1208.036133	-125.297585
217.331894	1300.554932	1374.217041	1210.020996	-122.904350
217.708191	1300.003418	1376.863647	1212.777954	-113.485825
218.084442	1300.113770	1383.480103	1213.549805	-103.835640
218.460678	1296.915771	1384.141602	1217.629761	-90.897400
218.836899	1295.041260	1385.685303	1221.158569	-81.508598
219.213074	1292.615234	1387.339478	1222.040771	-74.505173
219.589233	1294.269287	1392.191650	1227.113281	-68.580864
219.965347	1296.805542	1398.697510	1230.200928	-65.367874
220.341431	1295.592529	1399.359131	1231.303711	-61.955212
220.717499	1296.254150	1400.241455	1236.155640	-57.794083
221.093552	1295.041260	1402.336548	1237.258545	-53.853916
221.469543	1299.011108	1407.078247	1236.596802	-57.755119
221.845535	1302.980835	1407.409058	1238.802124	-61.457249
222.221466	1305.296631	1411.709595	1241.559082	-59.896412
222.597397	1305.186279	1417.884766	1237.368652	-60.176167
222.973297	1302.760376	1426.706543	1240.787231	-50.000050
223.349167	1300.554932	1437.403076	1239.353760	-44.721958
223.725006	1297.467285	1446.996826	1237.589233	-40.044296
224.100800	1295.041260	1454.385010	1236.817383	-36.539795
224.476578	1295.372070	1465.081543	1237.368774	-34.177994
224.852325	1297.577515	1475.778076	1236.596802	-34.220268
225.228058	1298.680298	1495.847778	1240.676880	-29.418348
225.603760	1297.577637	1523.195313	1242.000122	-24.633493
225.979416	1295.261963	1552.086792	1247.734253	-18.505886
226.355057	1295.372192	1590.351318	1252.255493	-14.616864
226.730652	1296.805664	1642.069214	1254.571289	-12.232503
227.106232	1296.915894	1691.912231	1262.841675	-8.626465
227.481796	1294.159180	1736.903687	1264.716309	-6.650082
227.857315	1292.946167	1778.145630	1266.370483	-5.477270
228.232788	1296.033813	1815.638184	1273.648560	-4.308134
228.608246	1296.695435	1848.058350	1280.375244	-2.959972
228.983704	1297.026245	1883.345459	1284.014282	-2.219263
229.359100	1297.577637	1916.206665	1289.197021	-1.354708
229.734482	1293.166748	1945.870117	1291.512695	-0.253416
230.109833	1290.189453	1973.768921	1291.292114	0.161307
230.485153	1290.189331	1989.979126	1295.482422	0.756383
230.860443	1289.527710	2012.585205	1298.239258	1.204821
231.235703	1293.166748	2031.331421	1305.848022	1.717947
231.610931	1293.607788	2055.481445	1311.251343	2.315811
231.986145	1293.056396	2079.300049	1320.183350	3.450197
232.361313	1290.189209	2098.708252	1329.446289	4.855431
232.736465	1287.983765	2121.313965	1339.812012	6.219413
233.111572	1285.888550	2134.656982	1342.348145	6.651943
233.486664	1288.865845	2141.052734	1346.648804	6.780550
233.861725	1290.409668	2141.604248	1348.082275	6.775490
234.236755	1292.284302	2138.957520	1351.721313	7.020065
234.611771	1296.474731	2120.873047	1356.683594	7.303370
234.986740	1298.900635	2101.023926	1358.447876	7.423702
235.361679	1299.782959	2083.710938	1363.299805	8.102383
235.736588	1298.570068	2073.235107	1367.931396	8.953718
236.111496	1297.908447	2069.375488	1376.312134	10.162934
236.486343	1298.459717	2071.139893	1380.612671	10.632207
236.861160	1301.106323	2071.250000	1388.662720	11.368839
237.235962	1300.334351	2079.961426	1396.712524	12.362086
237.610733	1302.760376	2089.996338	1410.276001	13.657357
237.985474	1301.437134	2106.978271	1424.170410	15.236128
238.360199	1300.665283	2140.501221	1445.453125	17.240015
238.734879	1301.767944	2177.662842	1466.294678	18.783844
239.109543	1300.334473	2227.616455	1488.569702	20.299675
239.484177	1304.635132	2281.650146	1516.358398	21.670422
239.858749	1310.810303	2350.680908	1553.740723	23.361601
240.233322	1311.361694	2434.047119	1593.328491	25.115387
240.607864	1313.126099	2511.899414	1629.056885	26.354506
240.982391	1314.559570	2592.618896	1673.386719	28.075939
241.356857	1316.213745	2651.063232	1712.092041	29.657148
241.731308	1315.000610	2704.435059	1742.637695	30.777781
242.105728	1317.977905	2744.684814	1770.646729	31.728228
242.480118	1312.354126	2785.926758	1800.089600	33.098843
242.854492	1310.479492	2835.880127	1825.452393	33.759846
243.228836	1309.045898	2893.442383	1859.526611	34.743874
243.603134	1312.905518	2957.290283	1898.783691	35.629021
243.977402	1312.023193	3046.721436	1947.083130	36.609245
244.351654	1310.920532	3168.241699	2013.246826	37.813938
244.725861	1310.810303	3315.235107	2087.129395	38.730267
245.100067	1311.912964	3466.970215	2169.062012	39.773842
245.474213	1311.361694	3603.377197	2242.172852	40.611031
245.848343	1316.985474	3710.341553	2310.210938	41.499279
246.222443	1318.198486	3794.700195	2360.716064	42.096382
246.596512	1318.419067	3855.019287	2401.075684	42.681408
246.970566	1321.286133	3892.181641	2430.518311	43.145752
247.344574	1320.845093	3904.862793	2443.751221	43.455822
247.718567	1317.206055	3891.740234	2445.294922	43.817204
248.092529	1318.749756	3859.430420	2441.324951	44.184032
248.466431	1315.441650	3833.075195	2434.157227	44.435204
248.840332	1313.236206	3807.051025	2426.327637	44.634083
249.214203	1311.030640	3809.476563	2426.217529	44.635223
249.588043	1313.787598	3825.797363	2436.472900	44.692711
249.961838	1310.038330	3853.696045	2450.918457	44.851952
250.335617	1313.677124	3886.888428	2463.379395	44.679665
250.709381	1313.456665	3901.664795	2472.973145	44.799973
251.083084	1318.198608	3899.569824	2471.539795	44.679401
251.456787	1314.780029	3882.367188	2459.299316	44.575676
251.830460	1316.434204	3829.656738	2436.362793	44.561455
252.204071	1313.456787	3746.069824	2394.569336	44.442440
252.577667	1310.038452	3638.995117	2346.600830	44.507587
252.951248	1310.369263	3513.615234	2282.973633	44.144154
253.324799	1308.604858	3406.099365	2223.205811	43.604446
253.698303	1305.737671	3326.152100	2179.978760	43.270386
254.071793	1305.296631	3267.817627	2141.383301	42.602688
254.445236	1304.083618	3233.853760	2115.469238	42.045712
254.818665	1300.113770	3219.959473	2103.008545	41.820797
255.192062	1300.003418	3219.077393	2107.529785	42.078960
255.565430	1300.444458	3243.888672	2116.131104	41.971188
255.938782	1301.878052	3283.365967	2126.386475	41.610569
256.312103	1304.745117	3340.266846	2142.927490	41.177765
256.685364	1306.730225	3419.442383	2172.260010	40.967709
257.058594	1304.965820	3518.357178	2208.870605	40.838001
257.431793	1302.098633	3646.714600	2258.603271	40.795792
257.804993	1302.760254	3790.178955	2316.165527	40.741241
258.178162	1299.672729	3928.240234	2371.522217	40.776947
258.551270	1298.128906	4052.517578	2423.901611	40.871964
258.924377	1294.379639	4145.587402	2460.512207	40.899601
259.297485	1293.938599	4222.999023	2492.381104	40.915592
259.670502	1293.056396	4286.625977	2516.420410	40.866398
260.043518	1295.151489	4346.063477	2541.011230	40.835648
260.416473	1298.569946	4394.473145	2558.875732	40.708824
260.789459	1297.026123	4449.830078	2581.260986	40.733101
261.162354	1297.246704	4497.467773	2604.638672	40.853176
261.535278	1298.349365	4541.796875	2617.209717	40.662300
261.908142	1298.790527	4576.092285	2630.552734	40.635937
262.280975	1301.216553	4595.279297	2631.655518	40.389000
262.653717	1302.870605	4609.834961	2632.868408	40.218086
263.026520	1300.113892	4627.809570	2628.567871	39.921135
263.399261	1297.357056	4643.688477	2622.172119	39.590073
263.771973	1296.915894	4654.495605	2617.981689	39.345779
264.144653	1298.239258	4653.502930	2617.540527	39.320347
264.517334	1301.106323	4633.103027	2603.756592	39.095184
264.889954	1302.208862	4586.678223	2577.511719	38.828278
265.262543	1305.627563	4506.179199	2540.790771	38.592197
265.635071	1308.053589	4405.610840	2486.646973	38.049126
266.007599	1311.802856	4310.224609	2437.134277	37.530788
266.380127	1312.133545	4240.201660	2399.090332	37.121979
266.752594	1315.882935	4205.575684	2376.705078	36.710548
267.125031	1315.000732	4197.084473	2365.788086	36.459293
267.497437	1313.236328	4212.963867	2357.187012	36.001682
267.869843	1316.544556	4239.098633	2356.194580	35.573338
268.242218	1313.567261	4277.473633	2358.069092	35.240719
268.614532	1311.913208	4335.697754	2369.427246	34.973194
268.986816	1312.354126	4430.973633	2391.040771	34.588593
269.359100	1311.471924	4539.150879	2417.175293	34.256920
269.731354	1310.038452	4652.510742	2447.610596	34.033855
270.103516	1311.030762	4749.219727	2477.163574	33.917065
270.475708	1311.361572	4830.049805	2502.636475	33.855652
270.847839	1314.890381	4902.499023	2519.397949	33.574108
271.219971	1318.419067	4961.053711	2538.364502	33.490742
271.592041	1320.403809	5006.596191	2550.935791	33.382198
271.964081	1321.065552	5036.369629	2555.897949	33.236374
272.336151	1316.434204	5064.048340	2556.559814	33.091068
272.708130	1316.654785	5090.182129	2560.198730	32.954418
273.080109	1313.015869	5107.385254	2553.692383	32.697830
273.452026	1311.582275	5141.238770	2559.426758	32.583717
273.823914	1310.369263	5176.085449	2563.286621	32.410999
274.195770	1310.369263	5215.893555	2564.278564	32.106041
274.567627	1309.376831	5261.987793	2570.012939	31.893757
274.939423	1310.700073	5304.332031	2579.606689	31.773251
275.311249	1312.243896	5345.464355	2588.428467	31.641825
275.682983	1310.479492	5376.120117	2595.927246	31.617348
276.054688	1309.707520	5401.151855	2593.721680	31.382906
276.426422	1307.943115	5403.577148	2587.987305	31.253872
276.798065	1312.243896	5370.495117	2572.880371	31.063540
277.169708	1313.236206	5325.172852	2554.795654	30.946638
277.541321	1317.757446	5277.536133	2538.254639	30.822357
277.912903	1316.985352	5267.832031	2531.638184	30.744114
278.284424	1316.764893	5279.741211	2526.014404	30.513670
278.655945	1315.882813	5301.685547	2534.284668	30.568544
279.027435	1312.574707	5332.010254	2543.768066	30.631001
279.398865	1310.920532	5391.226563	2567.256104	30.790228
279.770294	1307.502075	5467.424805	2586.884521	30.754955
280.141663	1310.810303	5539.763672	2610.482666	30.732721
280.513031	1313.015869	5615.631348	2638.712646	30.811419
280.884369	1315.993164	5680.912598	2664.957520	30.904680
281.255676	1314.559570	5725.462402	2680.726563	30.972502
281.626953	1313.787720	5763.727051	2700.796143	31.169153
281.998199	1316.654907	5805.189453	2721.086426	31.289310
282.369385	1313.346680	5856.245605	2741.707275	31.441610
282.740540	1313.236328	5915.572754	2759.902344	31.433296
283.111694	1311.802856	5983.280273	2791.660645	31.678581
283.482819	1310.479492	6070.064941	2819.890381	31.713076
283.853912	1314.559570	6165.339844	2861.132324	31.882969
284.224945	1315.441772	6257.858398	2904.138672	32.144131
284.595978	1313.346436	6348.502930	2941.631592	32.338326
284.966980	1311.030762	6425.914551	2981.990967	32.668587
285.337952	1309.817749	6500.238281	3013.749512	32.828396
285.708893	1306.730103	6535.746094	3046.280029	33.267250
286.079803	1305.406860	6558.352051	3075.281738	33.693001
286.450684	1304.745239	6574.893066	3099.431641	34.053814
286.821533	1307.391846	6588.677246	3118.398682	34.291027
287.192322	1306.399414	6596.506836	3137.916992	34.621559
287.563110	1307.391968	6602.571289	3166.146484	35.102768
287.933868	1303.642700	6627.272461	3194.817383	35.524158
288.304596	1299.672852	6668.735352	3236.280029	36.069744
288.675262	1300.885742	6725.304199	3293.070801	36.726242
289.045929	1301.326782	6777.683594	3349.971436	37.408894
289.416565	1300.113770	6826.645020	3402.791260	38.046967
289.787170	1296.805664	6843.957520	3441.277100	38.658962
290.157745	1293.718018	6845.170898	3483.621582	39.447395
290.528259	1293.497437	6840.870605	3524.091553	40.209919
290.898773	1294.820801	6830.614746	3546.586670	40.676476
291.269226	1294.269287	6813.852539	3580.440430	41.419273
291.639679	1290.630371	6797.202148	3616.499512	42.238060
292.010101	1294.820801	6810.876465	3662.924561	42.931107
292.380463	1293.828369	6840.539551	3722.030762	43.777336
292.750824	1298.680298	6882.332031	3779.041748	44.421848
293.121155	1300.775391	6928.756836	3840.573730	45.128052
293.491455	1307.502197	6990.068359	3898.687012	45.598846
293.861725	1310.920532	7072.000977	3966.284668	46.091427
294.231964	1313.125977	7184.479004	4040.828857	46.457825
294.602142	1314.669678	7298.721680	4120.776855	46.893097
294.972321	1314.669800	7398.077148	4191.902344	47.296398
295.342468	1316.213623	7496.991699	4264.681641	47.703831
295.712555	1317.095825	7559.295410	4324.339355	48.176025
296.082672	1318.419067	7583.776855	4360.508789	48.554127
296.452728	1315.882813	7585.761719	4375.946777	48.805790
296.822693	1319.080688	7589.400879	4387.084473	48.928982
297.192657	1321.065552	7589.180664	4394.142090	49.027126
297.562622	1322.388916	7606.824219	4417.630371	49.252499
297.932556	1326.027954	7627.886230	4434.061035	49.319313
298.302460	1328.233398	7634.833496	4446.742188	49.448338
298.672333	1327.792358	7640.347656	4467.694336	49.740585
299.042145	1329.005127	7636.597656	4471.664063	49.823429
299.411957	1330.218140	7623.033691	4468.025391	49.863327
299.781677	1326.027954	7584.768555	4454.130371	49.979744
300.151428	1326.579224	7523.125977	4432.296387	50.120129
300.521149	1326.248291	7458.727051	4404.176758	50.190613
300.890839	1322.829956	7386.829590	4371.536133	50.275501
301.260468	1317.095825	7310.961914	4334.153809	50.335758
301.630096	1318.418945	7223.515625	4287.288086	50.276386
301.999695	1319.080688	7102.436523	4234.356934	50.408039
302.369232	1316.323975	6976.063965	4169.736816	50.415970
302.738739	1314.449219	6859.727051	4105.337891	50.329105
303.108246	1310.699951	6722.106445	4042.151367	50.475815
303.477692	1311.251343	6610.841309	3986.794922	50.485859
303.847137	1311.361816	6522.182129	3943.678955	50.516369
304.216553	1311.361572	6456.680176	3904.863037	50.405071
304.585876	1310.369141	6397.794434	3873.104492	50.373917
304.955231	1309.597046	6350.267090	3849.175537	50.381767
305.324493	1306.619751	6311.010254	3831.090332	50.445118
305.693787	1306.178711	6280.244629	3804.735107	50.231670
306.063049	1306.509521	6274.399414	3791.612305	50.023308
306.432251	1307.391846	6272.414551	3784.775391	49.896725
306.801422	1305.627319	6267.783691	3779.152100	49.847782
307.170593	1304.524658	6268.334961	3774.740967	49.764515
307.539673	1303.642456	6275.171875	3775.844238	49.727188
307.908783	1304.304077	6290.831055	3775.513428	49.557728
308.277832	1302.650146	6307.150879	3778.049561	49.463463
308.646851	1300.444702	6338.357910	3783.673096	49.290817
309.015839	1303.973389	6378.717773	3797.897949	49.143848
309.384796	1298.239258	6410.586914	3812.454346	49.179268
309.753723	1295.151733	6446.205566	3826.458740	49.141541
310.122620	1294.600220	6472.339844	3842.227783	49.203468
310.491486	1296.144165	6484.690430	3850.166992	49.224247
310.860352	1299.342041	6501.231445	3854.247314	49.114944
311.229126	1299.452148	6515.456055	3858.216797	49.056034
311.597931	1298.680298	6523.726074	3857.666016	48.975376
311.966675	1300.224121	6544.016602	3874.096680	49.084179
312.335388	1300.665161	6579.523926	3892.512207	49.098625
312.704071	1298.680298	6617.236816	3903.539063	48.976799
313.072723	1301.326904	6632.564941	3906.186279	48.860306
313.441345	1301.988525	6630.139160	3913.022705	49.004513
313.809875	1302.650146	6611.061523	3900.672363	48.941616
314.178436	1298.459839	6573.018066	3875.309082	48.854313
314.546967	1304.193970	6535.194824	3854.136963	48.746750
314.915466	1304.635132	6494.283691	3839.801758	48.850449
315.283936	1308.604858	6440.911621	3812.123047	48.779587
315.652374	1309.266602	6398.125977	3784.114258	48.632660
316.020752	1307.943237	6345.084961	3758.200195	48.643795
316.389130	1313.236328	6299.542480	3739.784668	48.664246
