Jaz Data File
++++++++++++++++++++++++++++++++++++
Date: Thu Sep 26 04:29:16 2019
User: jaz
Dark Spectrum Present: Yes
Reference Spectrum Present: Yes
Processed Spectrum Present: Yes
Spectrometers: JAZA3541
Integration Time (usec): 100000 (JAZA3541)
Spectra Averaged: 1 (JAZA3541)
Boxcar Smoothing: 10 (JAZA3541)
Correct for Electrical Dark: No (JAZA3541)
Strobe/Lamp Enabled: Yes (JAZA3541)
Correct for Detector Non-linearity: No (JAZA3541)
Correct for Stray Light: No (JAZA3541)
Number of Pixels in Processed Spectrum: 2048
>>>>>Begin Processed Spectral Data<<<<<
W	D	R	S	P
190.543274	0.000000	0.000000	0.000000	0.000000
190.921555	0.000000	0.000000	0.000000	0.000000
191.299805	1296.805664	1336.172974	1238.912598	-147.058731
191.678024	1229.649658	1322.278564	1218.071045	-12.500000
192.056229	1345.435913	1313.015747	1181.019409	507.142700
192.434387	1331.541504	1278.279907	1199.545166	247.826477
192.812531	1303.752808	1324.594360	1211.123901	-444.443390
193.190659	1310.699951	1296.805664	1292.174194	133.333633
193.568741	1319.962891	1359.330200	1190.282349	-329.411743
193.946793	0.000000	0.000000	0.000000	0.000000
194.324829	1207.815674	1211.785522	1102.174683	-2661.083496
194.702835	1271.994385	1273.317627	1161.501343	-8350.174805
195.080811	1337.606445	1335.070313	1222.151245	4552.411621
195.458755	1337.827148	1332.203125	1222.592285	2048.975586
195.836685	1338.268188	1331.541626	1218.843018	1775.426514
196.214569	1339.811890	1336.172974	1218.842896	3324.313965
196.592422	1341.907104	1340.032471	1220.166260	6494.113281
196.970261	1342.679077	1342.127686	1219.835327	22278.857422
197.348068	1343.781860	1343.120117	1220.827881	18580.316406
197.725861	1344.222900	1342.127563	1223.584595	5757.465820
198.103622	1343.561279	1338.157837	1223.805054	2216.294922
198.481323	1340.253052	1337.496216	1226.782593	4115.967285
198.859039	1337.937378	1335.290771	1226.231201	4220.732422
199.236694	1335.070313	1335.621460	1228.767334	-19287.574219
199.614334	1333.416138	1335.511230	1224.356567	-5205.477051
199.991959	1329.115479	1337.937134	1226.010742	-1168.768555
200.369553	1324.373657	1337.826904	1228.105835	-715.573120
200.747101	1322.499023	1341.355835	1230.642090	-487.128662
201.124619	1320.514038	1341.576294	1231.634521	-421.984802
201.502136	1316.323608	1346.538452	1231.524292	-280.654480
201.879623	1313.677246	1349.736450	1228.326416	-236.696381
202.257065	1311.030640	1351.500854	1227.995483	-205.175964
202.634476	1309.927979	1352.934570	1227.775024	-191.024094
203.011871	1305.186279	1354.809082	1225.459229	-160.666153
203.389221	1303.091064	1361.866455	1226.120850	-130.956528
203.766571	1304.745117	1367.931519	1230.311279	-117.800407
204.143875	1300.334229	1365.064331	1230.862671	-107.324959
204.521164	1296.254272	1365.284912	1228.767456	-97.763565
204.898392	1297.798096	1363.300049	1231.744873	-100.841606
205.275620	1298.459717	1368.703369	1227.995483	-100.314026
205.652817	1293.718018	1368.482910	1226.120972	-90.412819
206.029984	1293.607666	1372.673218	1223.695068	-88.423592
206.407135	1291.953613	1374.988892	1221.269043	-85.125954
206.784225	1292.394775	1374.437378	1222.702515	-84.946426
207.161301	1293.607910	1372.893555	1223.033447	-89.012917
207.538376	1298.570190	1373.555176	1225.790161	-97.059471
207.915405	1302.209229	1370.798462	1223.805176	-114.309563
208.292404	1303.422119	1370.798584	1222.151001	-120.622414
208.669373	1305.406860	1366.718506	1220.607178	-138.309265
209.046310	1302.319336	1363.961670	1221.158569	-131.664001
209.423218	1303.863159	1361.645874	1219.725098	-145.611130
209.800095	1305.737793	1357.124756	1216.637451	-173.390945
210.176956	1308.715210	1353.265137	1219.063477	-201.238785
210.553787	1308.163818	1355.911743	1219.725220	-185.219772
210.930603	1309.597412	1356.242554	1221.599731	-188.653473
211.307358	1315.221313	1353.485718	1221.709961	-244.382095
211.684113	1317.316406	1349.846680	1219.725098	-300.001495
212.060837	1316.985596	1348.413086	1223.474243	-297.546356
212.437531	1316.765015	1350.839233	1224.466675	-270.874420
212.814178	1314.008179	1354.037109	1223.143433	-226.997681
213.190826	1312.574585	1351.280273	1224.246094	-228.205444
213.567413	1313.125977	1352.383057	1226.231079	-221.348343
213.943985	1310.258789	1357.345337	1229.539185	-171.428162
214.320541	1309.266479	1357.124756	1231.413818	-162.673355
214.697052	1307.612305	1361.315186	1230.200806	-144.147766
215.073563	1309.266357	1363.300049	1230.641968	-145.509933
215.449997	1303.863159	1360.874023	1229.318848	-130.754578
215.826431	1301.326904	1362.086914	1226.782593	-122.686470
216.202850	1300.334351	1364.954102	1229.098267	-110.238869
216.579224	1298.459717	1369.695923	1229.429077	-96.903870
216.955582	1300.885742	1374.989014	1228.326416	-97.916496
217.331894	1300.554932	1374.217041	1230.201050	-95.508919
217.708191	1300.003418	1376.863647	1230.972900	-89.813049
218.084442	1300.113770	1383.480103	1229.539429	-84.655685
218.460678	1296.915771	1384.141602	1228.987915	-77.875847
218.836899	1295.041260	1385.685303	1226.892822	-75.182480
219.213074	1292.615234	1387.339478	1224.687256	-71.711288
219.589233	1294.269287	1392.191650	1227.333984	-68.355484
219.965347	1296.805542	1398.697510	1227.333740	-68.181824
220.341431	1295.592529	1399.359131	1227.995483	-65.143356
220.717499	1296.254150	1400.241455	1227.443970	-66.171715
221.093552	1295.041260	1402.336548	1228.657104	-61.870522
221.469543	1299.011108	1407.078247	1226.231079	-67.347046
221.845535	1302.980835	1407.409058	1225.459229	-74.234344
222.221466	1305.296631	1411.709595	1224.135986	-76.269508
222.597397	1305.186279	1417.884766	1227.554443	-68.884544
222.973297	1302.760376	1426.706543	1227.554443	-60.676289
223.349167	1300.554932	1437.403076	1226.451782	-54.149910
223.725006	1297.467285	1446.996826	1231.744873	-43.952793
224.100800	1295.041260	1454.385010	1233.288696	-38.754307
224.476578	1295.372070	1465.081543	1236.486572	-34.697826
224.852325	1297.577515	1475.778076	1244.867188	-29.579214
225.228058	1298.680298	1495.847778	1246.852173	-26.286345
225.603760	1297.577637	1523.195313	1254.901978	-18.915033
225.979416	1295.261963	1552.086792	1259.202515	-14.040483
226.355057	1295.372192	1590.351318	1262.621094	-11.102853
226.730652	1296.805664	1642.069214	1271.222412	-7.409775
227.106232	1296.915894	1691.912231	1277.507935	-4.913453
227.481796	1294.159180	1736.903687	1286.770874	-1.668751
227.857315	1292.946167	1778.145630	1286.881104	-1.250014
228.232788	1296.033813	1815.638184	1293.276978	-0.530564
228.608246	1296.695435	1848.058350	1299.452148	0.499982
228.983704	1297.026245	1883.345459	1304.524780	1.278917
229.359100	1297.577637	1916.206665	1313.015625	2.495516
229.734482	1293.166748	1945.870117	1316.434082	3.564764
230.109833	1290.189453	1973.768921	1318.970459	4.210338
230.485153	1290.189331	1989.979126	1316.654785	3.781915
230.860443	1289.527710	2012.585205	1323.601929	4.712519
231.235703	1293.166748	2031.331421	1331.100586	5.138940
231.610931	1293.607788	2055.481445	1336.614136	5.644814
231.986145	1293.056396	2079.300049	1338.598999	5.792428
232.361313	1290.189209	2098.708252	1340.363403	6.205691
232.736465	1287.983765	2121.313965	1340.142822	6.259110
233.111572	1285.888550	2134.656982	1343.781860	6.820860
233.486664	1288.865845	2141.052734	1344.884521	6.573520
233.861725	1290.409668	2141.604248	1346.317993	6.568219
234.236755	1292.284302	2138.957520	1349.736450	6.785635
234.611771	1296.474731	2120.873047	1345.546021	5.952376
234.986740	1298.900635	2101.023926	1348.302856	6.158931
235.361679	1299.782959	2083.710938	1345.435791	5.823600
235.736588	1298.570068	2073.235107	1349.736450	6.604969
236.111496	1297.908447	2069.375488	1352.603516	7.089748
236.486343	1298.459717	2071.139893	1357.565918	7.649504
236.861160	1301.106323	2071.250000	1361.425537	7.832203
237.235962	1300.334351	2079.961426	1361.976807	7.906659
237.610733	1302.760376	2089.996338	1371.349976	8.712711
237.985474	1301.437134	2106.978271	1383.149170	10.143744
238.360199	1300.665283	2140.501221	1395.830322	11.331385
238.734879	1301.767944	2177.662842	1410.055664	12.363095
239.109543	1300.334473	2227.616455	1428.250610	13.794740
239.484177	1304.635132	2281.650146	1447.768921	14.650111
239.858749	1310.810303	2350.680908	1477.652710	16.044535
240.233322	1311.361694	2434.047119	1507.426392	17.463903
240.607864	1313.126099	2511.899414	1539.074463	18.848297
240.982391	1314.559570	2592.618896	1567.414673	19.784302
241.356857	1316.213745	2651.063232	1590.351196	20.536957
241.731308	1315.000610	2704.435059	1614.059937	21.523817
242.105728	1317.977905	2744.684814	1634.129517	22.159534
242.480118	1312.354126	2785.926758	1656.404541	23.348045
242.854492	1310.479492	2835.880127	1680.113037	24.231899
243.228836	1309.045898	2893.442383	1709.776245	25.292303
243.603134	1312.905518	2957.290283	1744.843140	26.267429
243.977402	1312.023193	3046.721436	1780.571655	27.010372
244.351654	1310.920532	3168.241699	1829.642822	27.928518
244.725861	1310.810303	3315.235107	1887.645996	28.778116
245.100067	1311.912964	3466.970215	1949.398804	29.580925
245.474213	1311.361694	3603.377197	2009.938477	30.478710
245.848343	1316.985474	3710.341553	2059.009766	31.003508
246.222443	1318.198486	3794.700195	2101.134033	31.614576
246.596512	1318.419067	3855.019287	2133.113281	32.117565
246.970566	1321.286133	3892.181641	2153.403564	32.366833
247.344574	1320.845093	3904.862793	2163.879395	32.624943
247.718567	1317.206055	3891.740234	2167.187256	33.014950
248.092529	1318.749756	3859.430420	2171.267090	33.554684
248.466431	1315.441650	3833.075195	2168.289551	33.874981
248.840332	1313.236206	3807.051025	2166.635498	34.220634
249.214203	1311.030640	3809.476563	2175.236816	34.589752
249.588043	1313.787598	3825.797363	2185.933105	34.719032
249.961838	1310.038330	3853.696045	2204.018066	35.145443
250.335617	1313.677124	3886.888428	2224.528564	35.397457
250.709381	1313.456665	3901.664795	2239.084717	35.763279
251.083084	1318.198608	3899.569824	2241.069824	35.751202
251.456787	1314.780029	3882.367188	2229.490967	35.625313
251.830460	1316.434204	3829.656738	2214.052734	35.715839
252.204071	1313.456787	3746.069824	2187.366699	35.924740
252.577667	1310.038452	3638.995117	2149.984375	36.065334
252.951248	1310.369263	3513.615234	2107.860596	36.196198
253.324799	1308.604858	3406.099365	2066.177246	36.117966
253.698303	1305.737671	3326.152100	2035.521606	36.120506
254.071793	1305.296631	3267.817627	2016.113647	36.219589
254.445236	1304.083618	3233.853760	1999.572876	36.040005
254.818665	1300.113770	3219.959473	1990.089478	35.939121
255.192062	1300.003418	3219.077393	1993.177124	36.120216
255.565430	1300.444458	3243.888672	1997.918945	35.888577
255.938782	1301.878052	3283.365967	2011.261719	35.800556
256.312103	1304.745117	3340.266846	2028.023193	35.532810
256.685364	1306.730225	3419.442383	2054.819336	35.408947
257.058594	1304.965820	3518.357178	2085.585449	35.268036
257.431793	1302.098633	3646.714600	2124.622070	35.081371
257.804993	1302.760254	3790.178955	2171.377686	34.920437
258.178162	1299.672729	3928.240234	2221.000244	35.050556
258.551270	1298.128906	4052.517578	2257.941650	34.846672
258.924377	1294.379639	4145.587402	2289.038330	34.885521
259.297485	1293.938599	4222.999023	2321.568848	35.083954
259.670502	1293.056396	4286.625977	2342.520508	35.057281
260.043518	1295.151489	4346.063477	2356.414795	34.785114
260.416473	1298.569946	4394.473145	2369.427002	34.589485
260.789459	1297.026123	4449.830078	2387.511963	34.587811
261.162354	1297.246704	4497.467773	2400.634033	34.478470
261.535278	1298.349365	4541.796875	2411.110352	34.307968
261.908142	1298.790527	4576.092285	2416.954590	34.118435
262.280975	1301.216553	4595.279297	2422.468262	34.038567
262.653717	1302.870605	4609.834961	2429.966797	34.082500
263.026520	1300.113892	4627.809570	2431.841797	34.009357
263.399261	1297.357056	4643.688477	2433.054688	33.938587
263.771973	1296.915894	4654.495605	2429.526123	33.732937
264.144653	1298.239258	4653.502930	2428.643799	33.690483
264.517334	1301.106323	4633.103027	2419.490967	33.564999
264.889954	1302.208862	4586.678223	2403.832520	33.540386
265.262543	1305.627563	4506.179199	2373.948242	33.379265
265.635071	1308.053589	4405.610840	2329.398193	32.972584
266.007599	1311.802856	4310.224609	2283.745361	32.415134
266.380127	1312.133545	4240.201660	2247.906982	31.958733
266.752594	1315.882935	4205.575684	2228.167969	31.570311
267.125031	1315.000732	4197.084473	2213.501953	31.175404
267.497437	1313.236328	4212.963867	2211.627197	30.981907
267.869843	1316.544556	4239.098633	2213.832520	30.702185
268.242218	1313.567261	4277.473633	2224.639404	30.738899
268.614532	1311.913208	4335.697754	2240.959717	30.724625
268.986816	1312.354126	4430.973633	2263.675781	30.504574
269.359100	1311.471924	4539.150879	2293.780273	30.433893
269.731354	1310.038452	4652.510742	2329.949707	30.513680
270.103516	1311.030762	4749.219727	2354.540283	30.350557
270.475708	1311.361572	4830.049805	2376.705322	30.276730
270.847839	1314.890381	4902.499023	2391.592041	30.011681
271.219971	1318.419067	4961.053711	2409.235596	29.945810
271.592041	1320.403809	5006.596191	2418.829346	29.798378
271.964081	1321.065552	5036.369629	2419.822021	29.573795
272.336151	1316.434204	5064.048340	2420.924805	29.471832
272.708130	1316.654785	5090.182129	2422.248047	29.298668
273.080109	1313.015869	5107.385254	2426.548584	29.346977
273.452026	1311.582275	5141.238770	2436.693848	29.378916
273.823914	1310.369263	5176.085449	2444.082031	29.327366
274.195770	1310.369263	5215.893555	2454.998779	29.307961
274.567627	1309.376831	5261.987793	2466.467041	29.274075
274.939423	1310.700073	5304.332031	2480.030029	29.279863
275.311249	1312.243896	5345.464355	2495.137451	29.328760
275.682983	1310.479492	5376.120117	2503.518311	29.344423
276.054688	1309.707520	5401.151855	2505.282959	29.221354
276.426422	1307.943115	5403.577148	2500.872070	29.126844
276.798065	1312.243896	5370.495117	2494.696777	29.137005
277.169708	1313.236206	5325.172852	2477.714844	29.025351
277.541321	1317.757446	5277.536133	2456.432129	28.756018
277.912903	1316.985352	5267.832031	2453.123779	28.756834
278.284424	1316.764893	5279.741211	2456.101074	28.749508
278.655945	1315.882813	5301.685547	2469.223877	28.936230
279.027435	1312.574707	5332.010254	2478.817627	29.015093
279.398865	1310.920532	5391.226563	2494.255371	29.001129
279.770294	1307.502075	5467.424805	2522.926270	29.217470
280.141663	1310.810303	5539.763672	2551.597168	29.340284
280.513031	1313.015869	5615.631348	2574.092773	29.309544
280.884369	1315.993164	5680.912598	2597.470703	29.358561
281.255676	1314.559570	5725.462402	2612.247314	29.420004
281.626953	1313.787720	5763.727051	2626.913574	29.508848
281.998199	1316.654907	5805.189453	2642.241455	29.532724
282.369385	1313.346680	5856.245605	2660.546631	29.655071
282.740540	1313.236328	5915.572754	2680.615967	29.710554
283.111694	1311.802856	5983.280273	2705.427734	29.832636
283.482819	1310.479492	6070.064941	2738.729980	30.007875
283.853912	1314.559570	6165.339844	2776.994385	30.148445
284.224945	1315.441772	6257.858398	2815.369385	30.348063
284.595978	1313.346436	6348.502930	2850.876953	30.535904
284.966980	1311.030762	6425.914551	2888.590332	30.842529
285.337952	1309.817749	6500.238281	2926.193359	31.141516
285.708893	1306.730103	6535.746094	2954.202637	31.506357
286.079803	1305.406860	6558.352051	2980.006348	31.879248
286.450684	1304.745239	6574.893066	3002.501953	32.214592
286.821533	1307.391846	6588.677246	3022.020264	32.466122
287.192322	1306.399414	6596.506836	3047.603516	32.914345
287.563110	1307.391968	6602.571289	3068.004150	33.249340
287.933868	1303.642700	6627.272461	3098.770020	33.719986
288.304596	1299.672852	6668.735352	3143.320313	34.338348
288.675262	1300.885742	6725.304199	3197.243652	34.959652
289.045929	1301.326782	6777.683594	3252.379883	35.626842
289.416565	1300.113770	6826.645020	3299.576660	36.179348
289.787170	1296.805664	6843.957520	3347.435303	36.967251
290.157745	1293.718018	6845.170898	3380.737061	37.594105
290.528259	1293.497437	6840.870605	3418.671143	38.309555
290.898773	1294.820801	6830.614746	3447.672363	38.889664
291.269226	1294.269287	6813.852539	3474.909668	39.507339
291.639679	1290.630371	6797.202148	3510.527832	40.313602
292.010101	1294.820801	6810.876465	3555.078125	40.975971
292.380463	1293.828369	6840.539551	3603.708008	41.644131
292.750824	1298.680298	6882.332031	3654.764160	42.196114
293.121155	1300.775391	6928.756836	3702.291748	42.671005
293.491455	1307.502197	6990.068359	3763.492920	43.219746
293.861725	1310.920532	7072.000977	3820.394043	43.559078
294.231964	1313.125977	7184.479004	3889.975830	43.888519
294.602142	1314.669678	7298.721680	3971.136963	44.392452
294.972321	1314.669800	7398.077148	4045.570801	44.890976
295.342468	1316.213623	7496.991699	4114.711914	45.277443
295.712555	1317.095825	7559.295410	4169.406250	45.693996
296.082672	1318.419067	7583.776855	4203.039551	46.040794
296.452728	1315.882813	7585.761719	4220.683105	46.329449
296.822693	1319.080688	7589.400879	4228.622559	46.401810
297.192657	1321.065552	7589.180664	4247.369141	46.685543
297.562622	1322.388916	7606.824219	4261.814941	46.773109
297.932556	1326.027954	7627.886230	4289.052734	47.018272
298.302460	1328.233398	7634.833496	4303.829102	47.182247
298.672333	1327.792358	7640.347656	4317.172363	47.356098
299.042145	1329.005127	7636.597656	4333.381836	47.631115
299.411957	1330.218140	7623.033691	4333.492188	47.725441
299.781677	1326.027954	7584.768555	4325.552734	47.925373
300.151428	1326.579224	7523.125977	4311.106934	48.164371
300.521149	1326.248291	7458.727051	4286.626465	48.273762
300.890839	1322.829956	7386.829590	4258.286621	48.407928
301.260468	1317.095825	7310.961914	4216.823730	48.378258
301.630096	1318.418945	7223.515625	4175.802246	48.388424
301.999695	1319.080688	7102.436523	4129.818848	48.600471
302.369232	1316.323975	6976.063965	4073.028320	48.707260
302.738739	1314.449219	6859.727051	4013.040527	48.664673
303.108246	1310.699951	6722.106445	3961.873779	48.992325
303.477692	1311.251343	6610.841309	3909.384033	49.025169
303.847137	1311.361816	6522.182129	3870.788574	49.117538
304.216553	1311.361572	6456.680176	3837.706787	49.099880
304.585876	1310.369141	6397.794434	3812.344238	49.179592
304.955231	1309.597046	6350.267090	3787.422607	49.156673
305.324493	1306.619751	6311.010254	3771.543213	49.255215
305.693787	1306.178711	6280.244629	3753.789063	49.207436
306.063049	1306.509521	6274.399414	3748.606445	49.157631
306.432251	1307.391846	6272.414551	3750.701660	49.210449
306.801422	1305.627319	6267.783691	3743.533936	49.129986
307.170593	1304.524658	6268.334961	3744.194824	49.149139
307.539673	1303.642456	6275.171875	3748.605713	49.179302
307.908783	1304.304077	6290.831055	3754.340088	49.133118
308.277832	1302.650146	6307.150879	3769.889160	49.300400
308.646851	1300.444702	6338.357910	3793.818115	49.492191
309.015839	1303.973389	6378.717773	3816.864990	49.517601
309.384796	1298.239258	6410.586914	3846.638428	49.847923
309.753723	1295.151733	6446.205566	3861.855957	49.828720
310.122620	1294.600220	6472.339844	3883.690430	50.004257
310.491486	1296.144165	6484.690430	3896.813232	50.123268
310.860352	1299.342041	6501.231445	3901.995605	50.032848
311.229126	1299.452148	6515.456055	3911.478760	50.077160
311.597931	1298.680298	6523.726074	3911.478760	50.005272
311.966675	1300.224121	6544.016602	3923.608643	50.028381
312.335388	1300.665161	6579.523926	3946.435303	50.120113
312.704071	1298.680298	6617.236816	3970.916016	50.243629
313.072723	1301.326904	6632.564941	3984.038330	50.320606
313.441345	1301.988525	6630.139160	3987.346436	50.399441
313.809875	1302.650146	6611.061523	3981.281738	50.460136
314.178436	1298.459839	6573.018066	3958.124268	50.424404
314.546967	1304.193970	6535.194824	3943.347412	50.452168
314.915466	1304.635132	6494.283691	3922.837158	50.450474
315.283936	1308.604858	6440.911621	3891.299072	50.322292
315.652374	1309.266602	6398.125977	3868.913574	50.299030
316.020752	1307.943237	6345.084961	3838.809082	50.244083
316.389130	1313.236328	6299.542480	3807.822510	50.028740
316.757416	1313.346680	6259.072266	3787.422363	50.024525
