Jaz Data File
++++++++++++++++++++++++++++++++++++
Date: Thu Sep 26 04:28:23 2019
User: jaz
Dark Spectrum Present: Yes
Reference Spectrum Present: Yes
Processed Spectrum Present: Yes
Spectrometers: JAZA3541
Integration Time (usec): 100000 (JAZA3541)
Spectra Averaged: 1 (JAZA3541)
Boxcar Smoothing: 10 (JAZA3541)
Correct for Electrical Dark: No (JAZA3541)
Strobe/Lamp Enabled: Yes (JAZA3541)
Correct for Detector Non-linearity: No (JAZA3541)
Correct for Stray Light: No (JAZA3541)
Number of Pixels in Processed Spectrum: 2048
>>>>>Begin Processed Spectral Data<<<<<
W	D	R	S	P
190.543274	0.000000	0.000000	0.000000	0.000000
190.921555	0.000000	0.000000	0.000000	0.000000
191.299805	1296.805664	1336.172974	1174.072266	-311.764771
191.678024	1229.649658	1322.278564	1199.545166	-32.500107
192.056229	1345.435913	1313.015747	1211.123901	414.285400
192.434387	1331.541504	1278.279907	1199.545166	247.826477
192.812531	1303.752808	1324.594360	1187.966553	-555.554810
193.190659	1310.699951	1296.805664	1225.018188	616.669006
193.568741	1319.962891	1359.330200	1266.701172	-135.294281
193.946793	0.000000	0.000000	0.000000	0.000000
194.324829	1207.815674	1211.785522	1114.525146	-2349.977051
194.702835	1271.994385	1273.317627	1169.220337	-7766.835938
195.080811	1337.606445	1335.070313	1228.105957	4317.616699
195.458755	1337.827148	1332.203125	1232.847534	1866.628296
195.836685	1338.268188	1331.541626	1233.950439	1550.833008
196.214569	1339.811890	1336.172974	1233.619507	2918.242188
196.592422	1341.907104	1340.032471	1235.163330	5694.113281
196.970261	1342.679077	1342.127686	1237.258423	19119.017578
197.348068	1343.781860	1343.120117	1240.787109	15564.158203
197.725861	1344.222900	1342.127563	1242.220825	4868.051270
198.103622	1343.561279	1338.157837	1241.779541	1883.646240
198.481323	1340.253052	1337.496216	1244.977417	3455.977783
198.859039	1337.937378	1335.290771	1244.205566	3541.584717
199.236694	1335.070313	1335.621460	1246.080322	-16146.312500
199.614334	1333.416138	1335.511230	1248.616455	-4047.538330
199.991959	1329.115479	1337.937134	1248.395874	-915.016541
200.369553	1324.373657	1337.826904	1248.285645	-565.573608
200.747101	1322.499023	1341.355835	1250.049927	-384.206512
201.124619	1320.514038	1341.576294	1253.909546	-316.226776
201.502136	1316.323608	1346.538452	1252.145264	-212.406677
201.879623	1313.677246	1349.736450	1246.300903	-186.849228
202.257065	1311.030640	1351.500854	1244.095459	-165.393692
202.634476	1309.927979	1352.934570	1247.955078	-144.100937
203.011871	1305.186279	1354.809082	1246.411133	-118.443825
203.389221	1303.091064	1361.866455	1243.102905	-102.063393
203.766571	1304.745117	1367.931519	1241.559204	-99.999229
204.143875	1300.334229	1365.064331	1248.175537	-80.578728
204.521164	1296.254272	1365.284912	1249.167847	-68.210907
204.898392	1297.798096	1363.300049	1249.057617	-74.410728
205.275620	1298.459717	1368.703369	1244.426270	-76.922890
205.652817	1293.718018	1368.482910	1239.463989	-72.566185
206.029984	1293.607666	1372.673218	1236.155762	-72.663635
206.407135	1291.953613	1374.988892	1231.083130	-73.306770
206.784225	1292.394775	1374.437378	1231.744751	-73.925034
207.161301	1293.607910	1372.893555	1230.752441	-79.277237
207.538376	1298.570190	1373.555176	1231.524170	-89.412598
207.915405	1302.209229	1370.798462	1232.847412	-101.126389
208.292404	1303.422119	1370.798584	1235.714600	-100.491348
208.669373	1305.406860	1366.718506	1236.486572	-112.409782
209.046310	1302.319336	1363.961670	1236.155640	-107.334831
209.423218	1303.863159	1361.645874	1237.368530	-115.077026
209.800095	1305.737793	1357.124756	1244.205566	-119.742874
210.176956	1308.715210	1353.265137	1244.205566	-144.803024
210.553787	1308.163818	1355.911743	1244.315796	-133.718948
210.930603	1309.597412	1356.242554	1248.836914	-130.261154
211.307358	1315.221313	1353.485718	1251.814331	-165.707489
211.684113	1317.316406	1349.846680	1252.145264	-200.339981
212.060837	1316.985596	1348.413086	1249.057617	-216.141907
212.437531	1316.765015	1350.839233	1248.285767	-200.970856
212.814178	1314.008179	1354.037109	1251.373291	-156.474045
213.190826	1312.574585	1351.280273	1249.719360	-162.392731
213.567413	1313.125977	1352.383057	1251.483765	-157.021896
213.943985	1310.258789	1357.345337	1253.468628	-120.608040
214.320541	1309.266479	1357.124756	1258.982178	-105.069183
214.697052	1307.612305	1361.315186	1254.571289	-98.767540
215.073563	1309.266357	1363.300049	1255.012451	-100.407555
215.449997	1303.863159	1360.874023	1253.248047	-88.781517
215.826431	1301.326904	1362.086914	1250.270630	-84.029404
216.202850	1300.334351	1364.954102	1247.954834	-81.058060
216.579224	1298.459717	1369.695923	1244.867310	-75.231979
216.955582	1300.885742	1374.989014	1244.205566	-76.488091
217.331894	1300.554932	1374.217041	1245.969849	-74.101982
217.708191	1300.003418	1376.863647	1242.661743	-74.605133
218.084442	1300.113770	1383.480103	1246.631470	-64.153358
218.460678	1296.915771	1384.141602	1245.749268	-58.659809
218.836899	1295.041260	1385.685303	1243.984985	-56.326122
219.213074	1292.615234	1387.339478	1242.110352	-53.317799
219.589233	1294.269287	1392.191650	1245.418579	-49.887184
219.965347	1296.805542	1398.697510	1246.852173	-49.025818
220.341431	1295.592529	1399.359131	1248.837036	-45.058327
220.717499	1296.254150	1400.241455	1243.433716	-50.795078
221.093552	1295.041260	1402.336548	1248.616577	-43.268147
221.469543	1299.011108	1407.078247	1248.175537	-47.040730
221.845535	1302.980835	1407.409058	1245.529053	-55.015572
222.221466	1305.296631	1411.709595	1244.095459	-57.512890
222.597397	1305.186279	1417.884766	1248.285767	-50.489155
222.973297	1302.760376	1426.706543	1246.631714	-45.284710
223.349167	1300.554932	1437.403076	1246.962524	-39.161953
223.725006	1297.467285	1446.996826	1251.704224	-30.604696
224.100800	1295.041260	1454.385010	1252.586304	-26.643627
224.476578	1295.372070	1465.081543	1255.453369	-23.521788
224.852325	1297.577515	1475.778076	1256.114990	-23.267336
225.228058	1298.680298	1495.847778	1253.909546	-22.706966
225.603760	1297.577637	1523.195313	1254.791626	-18.963945
225.979416	1295.261963	1552.086792	1258.761475	-14.212212
226.355057	1295.372192	1590.351318	1264.164917	-10.579486
226.730652	1296.805664	1642.069214	1267.142334	-8.591503
227.106232	1296.915894	1691.912231	1273.648315	-5.890581
227.481796	1294.159180	1736.903687	1277.287354	-3.810736
227.857315	1292.946167	1778.145630	1276.736084	-3.340911
228.232788	1296.033813	1815.638184	1279.933838	-3.098507
228.608246	1296.695435	1848.058350	1283.903687	-2.320023
228.983704	1297.026245	1883.345459	1286.109131	-1.861974
229.359100	1297.577637	1916.206665	1293.497437	-0.659555
229.734482	1293.166748	1945.870117	1300.885742	1.182619
230.109833	1290.189453	1973.768921	1304.414429	2.080954
230.485153	1290.189331	1989.979126	1303.642456	1.922452
230.860443	1289.527710	2012.585205	1308.053467	2.562142
231.235703	1293.166748	2031.331421	1311.913086	2.539587
231.610931	1293.607788	2055.481445	1314.228760	2.706613
231.986145	1293.056396	2079.300049	1317.206055	3.071523
232.361313	1290.189209	2098.708252	1319.411499	3.614298
232.736465	1287.983765	2121.313965	1322.499146	4.141861
233.111572	1285.888550	2134.656982	1326.027832	4.729121
233.486664	1288.865845	2141.052734	1332.644287	5.137188
233.861725	1290.409668	2141.604248	1331.982666	4.884077
234.236755	1292.284302	2138.957520	1335.511475	5.105532
234.611771	1296.474731	2120.873047	1340.032593	5.283594
234.986740	1298.900635	2101.023926	1344.553711	5.691528
235.361679	1299.782959	2083.710938	1348.633911	6.231561
235.736588	1298.570068	2073.235107	1355.801636	7.387911
236.111496	1297.908447	2069.375488	1362.307617	8.347624
236.486343	1298.459717	2071.139893	1372.673340	9.604701
236.861160	1301.106323	2071.250000	1377.194458	9.879732
237.235962	1300.334351	2079.961426	1379.620483	10.169751
237.610733	1302.760376	2089.996338	1387.560059	10.771825
237.985474	1301.437134	2106.978271	1398.146240	12.005484
238.360199	1300.665283	2140.501221	1413.032959	13.379718
238.734879	1301.767944	2177.662842	1429.794434	14.616650
239.109543	1300.334473	2227.616455	1444.791382	15.578531
239.484177	1304.635132	2281.650146	1465.743164	16.489822
239.858749	1310.810303	2350.680908	1489.451782	17.179203
240.233322	1311.361694	2434.047119	1521.100098	18.681850
240.607864	1313.126099	2511.899414	1553.520142	20.053337
240.982391	1314.559570	2592.618896	1585.499268	21.199305
241.356857	1316.213745	2651.063232	1612.516235	22.197445
241.731308	1315.000610	2704.435059	1635.011719	23.031754
242.105728	1317.977905	2744.684814	1653.978394	23.550772
242.480118	1312.354126	2785.926758	1672.724854	24.455580
242.854492	1310.479492	2835.880127	1693.125366	25.084942
243.228836	1309.045898	2893.442383	1716.172485	25.696005
243.603134	1312.905518	2957.290283	1744.181763	26.227209
243.977402	1312.023193	3046.721436	1775.057861	26.692520
244.351654	1310.920532	3168.241699	1823.467651	27.596041
244.725861	1310.810303	3315.235107	1882.132568	28.503054
245.100067	1311.912964	3466.970215	1943.223633	29.294382
245.474213	1311.361694	3603.377197	1999.683228	30.031277
245.848343	1316.985474	3710.341553	2048.864990	30.579636
246.222443	1318.198486	3794.700195	2091.650635	31.231642
246.596512	1318.419067	3855.019287	2125.504395	31.817602
246.970566	1321.286133	3892.181641	2150.977295	32.272457
247.344574	1320.845093	3904.862793	2162.445801	32.569466
247.718567	1317.206055	3891.740234	2171.377441	33.177708
248.092529	1318.749756	3859.430420	2171.598145	33.567715
248.466431	1315.441650	3833.075195	2171.708252	34.010773
248.840332	1313.236206	3807.051025	2168.179443	34.282547
249.214203	1311.030640	3809.476563	2173.803467	34.532383
249.588043	1313.787598	3825.797363	2188.359619	34.815628
249.961838	1310.038330	3853.696045	2207.877686	35.297176
250.335617	1313.677124	3886.888428	2225.521484	35.436047
250.709381	1313.456665	3901.664795	2236.438232	35.661026
251.083084	1318.198608	3899.569824	2236.658936	35.580330
251.456787	1314.780029	3882.367188	2231.586182	35.706913
251.830460	1316.434204	3829.656738	2219.346191	35.926464
252.204071	1313.456787	3746.069824	2187.477295	35.929287
252.577667	1310.038452	3638.995117	2154.726318	36.268940
252.951248	1310.369263	3513.615234	2114.807861	36.511517
253.324799	1308.604858	3406.099365	2073.896484	36.485989
253.698303	1305.737671	3326.152100	2041.145630	36.398869
254.071793	1305.296631	3267.817627	2014.239014	36.124065
254.445236	1304.083618	3233.853760	1996.815796	35.897133
254.818665	1300.113770	3219.959473	1989.979004	35.933369
255.192062	1300.003418	3219.077393	1995.713135	36.252365
255.565430	1300.444458	3243.888672	2003.542603	36.177944
255.938782	1301.878052	3283.365967	2018.319214	36.156727
256.312103	1304.745117	3340.266846	2039.050537	36.074554
256.685364	1306.730225	3419.442383	2070.147461	36.134464
257.058594	1304.965820	3518.357178	2100.582520	35.945595
257.431793	1302.098633	3646.714600	2145.573730	35.974979
257.804993	1302.760254	3790.178955	2192.990967	35.789337
258.178162	1299.672729	3928.240234	2242.282471	35.860207
258.551270	1298.128906	4052.517578	2283.414307	35.771473
258.924377	1294.379639	4145.587402	2322.229980	36.049648
259.297485	1293.938599	4222.999023	2350.349609	36.066547
259.670502	1293.056396	4286.625977	2371.963135	36.040810
260.043518	1295.151489	4346.063477	2396.333252	36.093525
260.416473	1298.569946	4394.473145	2410.227783	35.907383
260.789459	1297.026123	4449.830078	2431.841553	35.993847
261.162354	1297.246704	4497.467773	2452.462402	36.097996
261.535278	1298.349365	4541.796875	2468.231445	36.069092
261.908142	1298.790527	4576.092285	2484.552002	36.181026
262.280975	1301.216553	4595.279297	2493.042969	36.181049
262.653717	1302.870605	4609.834961	2496.130615	36.083244
263.026520	1300.113892	4627.809570	2493.925049	35.875008
263.399261	1297.357056	4643.688477	2497.453613	35.863049
263.771973	1296.915894	4654.495605	2498.997314	35.802025
264.144653	1298.239258	4653.502930	2491.609131	35.567097
264.517334	1301.106323	4633.103027	2480.140869	35.385227
264.889954	1302.208862	4586.678223	2465.474609	35.417160
265.262543	1305.627563	4506.179199	2429.084473	35.101974
265.635071	1308.053589	4405.610840	2388.283936	34.873623
266.007599	1311.802856	4310.224609	2343.402832	34.404766
266.380127	1312.133545	4240.201660	2314.070068	34.218346
266.752594	1315.882935	4205.575684	2291.905273	33.775990
267.125031	1315.000732	4197.084473	2277.569824	33.398373
267.497437	1313.236328	4212.963867	2282.642578	33.430943
267.869843	1316.544556	4239.098633	2289.590088	33.294353
268.242218	1313.567261	4277.473633	2302.271240	33.358139
268.614532	1311.913208	4335.697754	2311.423828	33.054955
268.986816	1312.354126	4430.973633	2335.242676	32.799400
269.359100	1311.471924	4539.150879	2364.685547	32.630680
269.731354	1310.038452	4652.510742	2385.196045	32.166538
270.103516	1311.030762	4749.219727	2406.919922	31.874023
270.475708	1311.361572	4830.049805	2428.753906	31.755934
270.847839	1314.890381	4902.499023	2446.838623	31.551609
271.219971	1318.419067	4961.053711	2459.409668	31.323223
271.592041	1320.403809	5006.596191	2467.679932	31.123610
271.964081	1321.065552	5036.369629	2473.634521	31.022196
272.336151	1316.434204	5064.048340	2476.391846	30.951895
272.708130	1316.654785	5090.182129	2479.038086	30.803627
273.080109	1313.015869	5107.385254	2482.235596	30.814600
273.452026	1311.582275	5141.238770	2483.779785	30.608425
273.823914	1310.369263	5176.085449	2488.411133	30.474091
274.195770	1310.369263	5215.893555	2494.476074	30.318766
274.567627	1309.376831	5261.987793	2509.473145	30.362116
274.939423	1310.700073	5304.332031	2530.866211	30.552795
275.311249	1312.243896	5345.464355	2533.623047	30.282974
275.682983	1310.479492	5376.120117	2531.968994	30.044207
276.054688	1309.707520	5401.151855	2529.432373	29.811596
276.426422	1307.943115	5403.577148	2526.234619	29.746103
276.798065	1312.243896	5370.495117	2510.575928	29.528286
277.169708	1313.236206	5325.172852	2489.955078	29.330446
277.541321	1317.757446	5277.536133	2479.699707	29.343615
277.912903	1316.985352	5267.832031	2477.714844	29.379259
278.284424	1316.764893	5279.741211	2482.897705	29.425682
278.655945	1315.882813	5301.685547	2492.490967	29.519979
279.027435	1312.574707	5332.010254	2504.621094	29.657059
279.398865	1310.920532	5391.226563	2522.375244	29.690290
279.770294	1307.502075	5467.424805	2547.296875	29.803312
280.141663	1310.810303	5539.763672	2576.408447	29.926985
280.513031	1313.015869	5615.631348	2603.645996	29.996410
280.884369	1315.993164	5680.912598	2625.920898	30.010353
281.255676	1314.559570	5725.462402	2648.085693	30.232498
281.626953	1313.787720	5763.727051	2674.661377	30.581846
281.998199	1316.654907	5805.189453	2694.179443	30.689850
282.369385	1313.346680	5856.245605	2713.587646	30.822630
282.740540	1313.236328	5915.572754	2730.459229	30.793552
283.111694	1311.802856	5983.280273	2752.734375	30.845306
283.482819	1310.479492	6070.064941	2790.447754	31.094479
283.853912	1314.559570	6165.339844	2830.035645	31.241903
284.224945	1315.441772	6257.858398	2870.836426	31.470327
284.595978	1313.346436	6348.502930	2912.519531	31.760149
284.966980	1311.030762	6425.914551	2954.423096	32.129612
285.337952	1309.817749	6500.238281	2990.041016	32.371620
285.708893	1306.730103	6535.746094	3023.012695	32.822285
286.079803	1305.406860	6558.352051	3052.565674	33.260555
286.450684	1304.745239	6574.893066	3078.148926	33.649979
286.821533	1307.391846	6588.677246	3103.180908	34.002880
287.192322	1306.399414	6596.506836	3128.543457	34.444366
287.563110	1307.391968	6602.571289	3157.766113	34.944504
287.933868	1303.642700	6627.272461	3195.369141	35.534523
288.304596	1299.672852	6668.735352	3241.904053	36.174496
288.675262	1300.885742	6725.304199	3301.561279	36.882767
289.045929	1301.326782	6777.683594	3359.455078	37.582073
289.416565	1300.113770	6826.645020	3409.959717	38.176678
289.787170	1296.805664	6843.957520	3456.715088	38.937267
290.157745	1293.718018	6845.170898	3497.736328	39.701645
290.528259	1293.497437	6840.870605	3538.206543	40.464359
290.898773	1294.820801	6830.614746	3582.094971	41.317905
291.269226	1294.269287	6813.852539	3615.728027	42.058590
291.639679	1290.630371	6797.202148	3666.673828	43.149231
292.010101	1294.820801	6810.876465	3723.573975	44.030613
292.380463	1293.828369	6840.539551	3789.406982	44.992043
292.750824	1298.680298	6882.332031	3848.182373	45.660118
293.121155	1300.775391	6928.756836	3919.639160	46.532913
293.491455	1307.502197	6990.068359	3988.890625	47.186222
293.861725	1310.920532	7072.000977	4062.222168	47.756695
294.231964	1313.125977	7184.479004	4157.166504	48.439270
294.602142	1314.669678	7298.721680	4253.544434	49.111786
294.972321	1314.669800	7398.077148	4343.857910	49.794266
295.342468	1316.213623	7496.991699	4425.790039	50.310432
295.712555	1317.095825	7559.295410	4486.881348	50.779945
296.082672	1318.419067	7583.776855	4531.652344	51.285713
296.452728	1315.882813	7585.761719	4557.455566	51.700722
296.822693	1319.080688	7589.400879	4584.031250	52.069920
297.192657	1321.065552	7589.180664	4610.827148	52.484066
297.562622	1322.388916	7606.824219	4638.616211	52.768898
297.932556	1326.027954	7627.886230	4667.618164	53.025475
298.302460	1328.233398	7634.833496	4690.996094	53.321323
298.672333	1327.792358	7640.347656	4709.631836	53.573223
299.042145	1329.005127	7636.597656	4727.716309	53.882858
299.411957	1330.218140	7623.033691	4726.062500	53.963829
299.781677	1326.027954	7584.768555	4727.165039	54.342197
300.151428	1326.579224	7523.125977	4712.609375	54.643826
300.521149	1326.248291	7458.727051	4690.113281	54.853271
300.890839	1322.829956	7386.829590	4658.795898	55.012634
301.260468	1317.095825	7310.961914	4624.611328	55.181671
301.630096	1318.418945	7223.515625	4584.913574	55.316532
301.999695	1319.080688	7102.436523	4529.777344	55.516155
302.369232	1316.323975	6976.063965	4466.591309	55.660988
302.738739	1314.449219	6859.727051	4404.066895	55.716194
303.108246	1310.699951	6722.106445	4336.249512	55.910599
303.477692	1311.251343	6610.841309	4279.458984	56.008251
303.847137	1311.361816	6522.182129	4237.445313	56.153988
304.216553	1311.361572	6456.680176	4206.678711	56.270905
304.585876	1310.369141	6397.794434	4174.258789	56.293499
304.955231	1309.597046	6350.267090	4156.284180	56.474377
305.324493	1306.619751	6311.010254	4141.397461	56.645813
305.693787	1306.178711	6280.244629	4124.084473	56.651958
306.063049	1306.509521	6274.399414	4119.012207	56.613632
306.432251	1307.391846	6272.414551	4124.966797	56.748482
306.801422	1305.627319	6267.783691	4126.400391	56.845711
307.170593	1304.524658	6268.334961	4130.921875	56.940071
307.539673	1303.642456	6275.171875	4126.510742	56.780682
307.908783	1304.304077	6290.831055	4134.119629	56.749226
308.277832	1302.650146	6307.150879	4151.321777	56.922192
308.646851	1300.444702	6338.357910	4175.030273	57.059052
309.015839	1303.973389	6378.717773	4198.849121	57.044762
309.384796	1298.239258	6410.586914	4218.698242	57.125595
309.753723	1295.151733	6446.205566	4232.372070	57.021736
310.122620	1294.600220	6472.339844	4253.324219	57.143162
310.491486	1296.144165	6484.690430	4257.955566	57.083649
310.860352	1299.342041	6501.231445	4270.967773	57.125889
311.229126	1299.452148	6515.456055	4289.493164	57.324364
311.597931	1298.680298	6523.726074	4296.109863	57.366573
311.966675	1300.224121	6544.016602	4308.239258	57.363354
312.335388	1300.665161	6579.523926	4330.734863	57.400093
312.704071	1298.680298	6617.236816	4348.819824	57.349010
313.072723	1301.326904	6632.564941	4362.934570	57.427704
313.441345	1301.988525	6630.139160	4374.072266	57.657600
313.809875	1302.650146	6611.061523	4365.140137	57.691273
314.178436	1298.459839	6573.018066	4351.025879	57.873398
314.546967	1304.193970	6535.194824	4332.058594	57.883083
314.915466	1304.635132	6494.283691	4314.966309	58.006454
315.283936	1308.604858	6440.911621	4288.280273	58.057236
315.652374	1309.266602	6398.125977	4259.830078	57.980843
316.020752	1307.943237	6345.084961	4233.474609	58.079193
316.389130	1313.236328	6299.542480	4206.678223	58.027763
316.757416	1313.346680	6259.072266	4181.866699	57.999985
