Jaz Data File
++++++++++++++++++++++++++++++++++++
Date: Thu Sep 26 04:28:45 2019
User: jaz
Dark Spectrum Present: Yes
Reference Spectrum Present: Yes
Processed Spectrum Present: Yes
Spectrometers: JAZA3541
Integration Time (usec): 100000 (JAZA3541)
Spectra Averaged: 1 (JAZA3541)
Boxcar Smoothing: 10 (JAZA3541)
Correct for Electrical Dark: No (JAZA3541)
Strobe/Lamp Enabled: Yes (JAZA3541)
Correct for Detector Non-linearity: No (JAZA3541)
Correct for Stray Light: No (JAZA3541)
Number of Pixels in Processed Spectrum: 2048
>>>>>Begin Processed Spectral Data<<<<<
W	D	R	S	P
190.543274	0.000000	0.000000	0.000000	0.000000
190.921555	0.000000	0.000000	0.000000	0.000000
191.299805	1296.805664	1336.172974	1169.440796	-323.529510
191.678024	1229.649658	1322.278564	1236.596802	7.499974
192.056229	1345.435913	1313.015747	1236.596802	335.714233
192.434387	1331.541504	1278.279907	1181.019409	282.609039
192.812531	1303.752808	1324.594360	1215.755249	-422.221710
193.190659	1310.699951	1296.805664	1218.071045	666.669006
193.568741	1319.962891	1359.330200	1174.072266	-370.588257
193.946793	0.000000	0.000000	0.000000	0.000000
194.324829	1207.815674	1211.785522	1106.916260	-2541.643799
194.702835	1271.994385	1273.317627	1165.140137	-8075.184570
195.080811	1337.606445	1335.070313	1222.702515	4530.674805
195.458755	1337.827148	1332.203125	1224.466797	2015.645020
195.836685	1338.268188	1331.541626	1221.599731	1734.443970
196.214569	1339.811890	1336.172974	1220.276489	3284.917725
196.592422	1341.907104	1340.032471	1223.033447	6341.166992
196.970261	1342.679077	1342.127686	1224.687500	21398.871094
197.348068	1343.781860	1343.120117	1226.782715	17680.447266
197.725861	1344.222900	1342.127563	1229.208618	5489.059082
198.103622	1343.561279	1338.157837	1225.348999	2187.721680
198.481323	1340.253052	1337.496216	1228.546875	4051.970459
198.859039	1337.937378	1335.290771	1222.812622	4349.900879
199.236694	1335.070313	1335.621460	1222.922974	-20347.972656
199.614334	1333.416138	1335.511230	1223.143433	-5263.380371
199.991959	1329.115479	1337.937134	1224.687256	-1183.771240
200.369553	1324.373657	1337.826904	1223.584473	-749.181091
200.747101	1322.499023	1341.355835	1221.489502	-535.665955
201.124619	1320.514038	1341.576294	1224.136108	-457.585968
201.502136	1316.323608	1346.538452	1223.364136	-307.661591
201.879623	1313.677246	1349.736450	1224.797852	-246.481857
202.257065	1311.030640	1351.500854	1228.216309	-204.630325
202.634476	1309.927979	1352.934570	1230.090820	-185.639359
203.011871	1305.186279	1354.809082	1230.311401	-150.888046
203.389221	1303.091064	1361.866455	1230.531860	-123.451675
203.766571	1304.745117	1367.931519	1234.060669	-111.866554
204.143875	1300.334229	1365.064331	1237.148193	-97.614609
204.521164	1296.254272	1365.284912	1238.250977	-84.025436
204.898392	1297.798096	1363.300049	1241.118164	-86.531670
205.275620	1298.459717	1368.703369	1237.920044	-86.185257
205.652817	1293.718018	1368.482910	1239.353760	-72.713615
206.029984	1293.607666	1372.673218	1241.338501	-66.108643
206.407135	1291.953613	1374.988892	1235.714600	-67.729057
206.784225	1292.394775	1374.437378	1238.471436	-65.726021
207.161301	1293.607910	1372.893555	1234.391235	-74.687767
207.538376	1298.570190	1373.555176	1231.193481	-89.853600
207.915405	1302.209229	1370.798462	1231.634521	-102.894730
208.292404	1303.422119	1370.798584	1231.965332	-106.056007
208.669373	1305.406860	1366.718506	1238.361084	-109.352432
209.046310	1302.319336	1363.961670	1238.802124	-103.041542
209.423218	1303.863159	1361.645874	1238.250732	-113.550270
209.800095	1305.737793	1357.124756	1236.707031	-134.335159
210.176956	1308.715210	1353.265137	1235.935303	-163.367065
210.553787	1308.163818	1355.911743	1237.589233	-147.806595
210.930603	1309.597412	1356.242554	1238.471313	-152.483398
211.307358	1315.221313	1353.485718	1238.802246	-199.713196
211.684113	1317.316406	1349.846680	1239.353638	-239.662201
212.060837	1316.985596	1348.413086	1238.581665	-249.475632
212.437531	1316.765015	1350.839233	1237.258423	-233.333572
212.814178	1314.008179	1354.037109	1232.626953	-203.306015
213.190826	1312.574585	1351.280273	1234.281006	-202.279251
213.567413	1313.125977	1352.383057	1234.832397	-199.438110
213.943985	1310.258789	1357.345337	1234.942749	-159.952347
214.320541	1309.266479	1357.124756	1241.117920	-142.396606
214.697052	1307.612305	1361.315186	1242.441162	-121.355019
215.073563	1309.266357	1363.300049	1245.639160	-117.754677
215.449997	1303.863159	1360.874023	1249.167969	-95.938187
215.826431	1301.326904	1362.086914	1249.719116	-84.937096
216.202850	1300.334351	1364.954102	1248.506104	-80.204964
216.579224	1298.459717	1369.695923	1246.521240	-72.910225
216.955582	1300.885742	1374.989014	1248.285767	-70.981987
217.331894	1300.554932	1374.217041	1248.726807	-70.359276
217.708191	1300.003418	1376.863647	1250.050049	-64.992477
218.084442	1300.113770	1383.480103	1248.395874	-62.036907
218.460678	1296.915771	1384.141602	1243.874756	-60.808842
218.836899	1295.041260	1385.685303	1245.639282	-54.501076
219.213074	1292.615234	1387.339478	1247.182983	-47.962643
219.589233	1294.269287	1392.191650	1248.175537	-47.071728
219.965347	1296.805542	1398.697510	1246.962524	-48.917515
220.341431	1295.592529	1399.359131	1247.182983	-46.652340
220.717499	1296.254150	1400.241455	1248.726807	-45.704948
221.093552	1295.041260	1402.336548	1250.491211	-41.520973
221.469543	1299.011108	1407.078247	1251.152710	-44.285801
221.845535	1302.980835	1407.409058	1252.917114	-47.940796
222.221466	1305.296631	1411.709595	1251.373291	-50.673656
222.597397	1305.186279	1417.884766	1249.939697	-49.021584
222.973297	1302.760376	1426.706543	1254.130127	-39.234978
223.349167	1300.554932	1437.403076	1249.939697	-36.986423
223.725006	1297.467285	1446.996826	1248.065063	-33.038437
224.100800	1295.041260	1454.385010	1250.160156	-28.166216
224.476578	1295.372070	1465.081543	1247.844482	-28.005264
224.852325	1297.577515	1475.778076	1250.601318	-26.361420
225.228058	1298.680298	1495.847778	1252.475952	-23.434059
225.603760	1297.577637	1523.195313	1249.829468	-21.163311
225.979416	1295.261963	1552.086792	1252.806885	-16.530752
226.355057	1295.372192	1590.351318	1258.651367	-12.448618
226.730652	1296.805664	1642.069214	1259.312988	-10.859147
227.106232	1296.915894	1691.912231	1261.297852	-9.017309
227.481796	1294.159180	1736.903687	1269.127197	-5.653821
227.857315	1292.946167	1778.145630	1275.302490	-3.636376
228.232788	1296.033813	1815.638184	1282.249756	-2.652799
228.608246	1296.695435	1848.058350	1285.668091	-2.000015
228.983704	1297.026245	1883.345459	1287.432495	-1.636267
229.359100	1297.577637	1916.206665	1290.409790	-1.158666
229.734482	1293.166748	1945.870117	1293.718140	0.084478
230.109833	1290.189453	1973.768921	1299.341919	1.338903
230.485153	1290.189331	1989.979126	1303.752930	1.938239
230.860443	1289.527710	2012.585205	1305.627563	2.226635
231.235703	1293.166748	2031.331421	1311.582031	2.494739
231.610931	1293.607788	2055.481445	1318.198364	3.227645
231.986145	1293.056396	2079.300049	1324.263428	3.969130
232.361313	1290.189209	2098.708252	1330.438599	4.978162
232.736465	1287.983765	2121.313965	1330.769531	5.134311
233.111572	1285.888550	2134.656982	1336.172852	5.924384
233.486664	1288.865845	2141.052734	1344.553589	6.534687
233.861725	1290.409668	2141.604248	1349.846680	6.982776
234.236755	1292.284302	2138.957520	1354.257568	7.319621
234.611771	1296.474731	2120.873047	1357.455444	7.396996
234.986740	1298.900635	2101.023926	1363.189697	8.014860
235.361679	1299.782959	2083.710938	1363.520508	8.130536
235.736588	1298.570068	2073.235107	1367.049194	8.839837
236.111496	1297.908447	2069.375488	1368.372437	9.133765
236.486343	1298.459717	2071.139893	1372.783447	9.618952
236.861160	1301.106323	2071.250000	1377.304565	9.894030
237.235962	1300.334351	2079.961426	1384.031128	10.735489
237.610733	1302.760376	2089.996338	1393.845459	11.570239
237.985474	1301.437134	2106.978271	1403.328979	12.648870
238.360199	1300.665283	2140.501221	1414.356323	13.537292
238.734879	1301.767944	2177.662842	1431.448486	14.805491
239.109543	1300.334473	2227.616455	1450.194824	16.161249
239.484177	1304.635132	2281.650146	1468.941162	16.817144
239.858749	1310.810303	2350.680908	1490.885376	17.317066
240.233322	1311.361694	2434.047119	1522.643921	18.819361
240.607864	1313.126099	2511.899414	1556.718140	20.320108
240.982391	1314.559570	2592.618896	1583.624634	21.052628
241.356857	1316.213745	2651.063232	1610.310669	22.032217
241.731308	1315.000610	2704.435059	1629.828857	22.658733
242.105728	1317.977905	2744.684814	1649.236816	23.218428
242.480118	1312.354126	2785.926758	1674.599487	24.582796
242.854492	1310.479492	2835.880127	1695.882202	25.265671
243.228836	1309.045898	2893.442383	1715.731201	25.668152
243.603134	1312.905518	2957.290283	1739.880981	25.965666
243.977402	1312.023193	3046.721436	1776.932617	26.800594
244.351654	1310.920532	3168.241699	1826.224487	27.744473
244.725861	1310.810303	3315.235107	1884.558594	28.624086
245.100067	1311.912964	3466.970215	1947.083130	29.473473
245.474213	1311.361694	3603.377197	2003.763184	30.209284
245.848343	1316.985474	3710.341553	2048.644043	30.570404
246.222443	1318.198486	3794.700195	2090.437744	31.182667
246.596512	1318.419067	3855.019287	2121.645020	31.665455
246.970566	1321.286133	3892.181641	2147.559082	32.139500
247.344574	1320.845093	3904.862793	2164.209961	32.637737
247.718567	1317.206055	3891.740234	2170.826172	33.156292
248.092529	1318.749756	3859.430420	2163.217285	33.237846
248.466431	1315.441650	3833.075195	2157.924072	33.463268
248.840332	1313.236206	3807.051025	2157.593262	33.858047
249.214203	1311.030640	3809.476563	2157.372803	33.874744
249.588043	1313.787598	3825.797363	2171.377197	34.139580
249.961838	1310.038330	3853.696045	2188.910645	34.551517
250.335617	1313.677124	3886.888428	2201.150879	34.488956
250.709381	1313.456665	3901.664795	2214.383789	34.808914
251.083084	1318.198608	3899.569824	2219.566895	34.918198
251.456787	1314.780029	3882.367188	2216.038086	35.101360
251.830460	1316.434204	3829.656738	2196.078857	35.000664
252.204071	1313.456787	3746.069824	2167.848877	35.122402
252.577667	1310.038452	3638.995117	2131.899902	35.288826
252.951248	1310.369263	3513.615234	2089.334473	35.355343
253.324799	1308.604858	3406.099365	2049.416016	35.318859
253.698303	1305.737671	3326.152100	2021.627075	35.432800
254.071793	1305.296631	3267.817627	1996.705566	35.230652
254.445236	1304.083618	3233.853760	1978.069702	34.925720
254.818665	1300.113770	3219.959473	1971.012329	34.945442
255.192062	1300.003418	3219.077393	1971.563599	34.993969
255.565430	1300.444458	3243.888672	1985.347900	35.241734
255.938782	1301.878052	3283.365967	2004.755737	35.472218
256.312103	1304.745117	3340.266846	2026.258911	35.446136
256.685364	1306.730225	3419.442383	2054.708984	35.403725
257.058594	1304.965820	3518.357178	2092.753174	35.591869
257.431793	1302.098633	3646.714600	2133.884766	35.476433
257.804993	1302.760254	3790.178955	2180.088867	35.270645
258.178162	1299.672729	3928.240234	2229.270752	35.365196
258.551270	1298.128906	4052.517578	2269.630371	35.271038
258.924377	1294.379639	4145.587402	2306.682129	35.504341
259.297485	1293.938599	4222.999023	2336.786377	35.603489
259.670502	1293.056396	4286.625977	2361.156738	35.679825
260.043518	1295.151489	4346.063477	2381.336426	35.601974
260.416473	1298.569946	4394.473145	2397.105469	35.483521
260.789459	1297.026123	4449.830078	2412.102783	35.367775
261.162354	1297.246704	4497.467773	2427.651123	35.322697
261.535278	1298.349365	4541.796875	2438.567871	35.154522
261.908142	1298.790527	4576.092285	2447.059082	35.037010
262.280975	1301.216553	4595.279297	2454.778076	35.019417
262.653717	1302.870605	4609.834961	2456.101318	34.872787
263.026520	1300.113892	4627.809570	2456.322021	34.745007
263.399261	1297.357056	4643.688477	2450.698242	34.465836
263.771973	1296.915894	4654.495605	2446.617920	34.241989
264.144653	1298.239258	4653.502930	2443.861328	34.144024
264.517334	1301.106323	4633.103027	2434.598389	34.018406
264.889954	1302.208862	4586.678223	2419.270508	34.010414
265.262543	1305.627563	4506.179199	2394.900146	34.033901
265.635071	1308.053589	4405.610840	2353.658447	33.755791
266.007599	1311.802856	4310.224609	2313.629395	33.411793
266.380127	1312.133545	4240.201660	2280.878418	33.084778
266.752594	1315.882935	4205.575684	2254.523193	32.482353
267.125031	1315.000732	4197.084473	2247.245117	32.346195
267.497437	1313.236328	4212.963867	2251.545654	32.358536
267.869843	1316.544556	4239.098633	2252.317627	32.019016
268.242218	1313.567261	4277.473633	2263.786133	32.059681
268.614532	1311.913208	4335.697754	2286.943115	32.245350
268.986816	1312.354126	4430.973633	2312.416016	32.067451
269.359100	1311.471924	4539.150879	2342.520752	31.943972
269.731354	1310.038452	4652.510742	2376.594971	31.909212
270.103516	1311.030762	4749.219727	2403.611572	31.777800
270.475708	1311.361572	4830.049805	2424.342529	31.630564
270.847839	1314.890381	4902.499023	2445.845947	31.523939
271.219971	1318.419067	4961.053711	2461.394287	31.377707
271.592041	1320.403809	5006.596191	2475.068359	31.324045
271.964081	1321.065552	5036.369629	2479.589111	31.182468
272.336151	1316.434204	5064.048340	2481.133057	31.078407
272.708130	1316.654785	5090.182129	2476.942627	30.748096
273.080109	1313.015869	5107.385254	2473.193359	30.576292
273.452026	1311.582275	5141.238770	2480.140625	30.513399
273.823914	1310.369263	5176.085449	2488.190430	30.468380
274.195770	1310.369263	5215.893555	2493.814453	30.301825
274.567627	1309.376831	5261.987793	2508.150391	30.328651
274.939423	1310.700073	5304.332031	2517.192627	30.210409
275.311249	1312.243896	5345.464355	2518.956787	29.919338
275.682983	1310.479492	5376.120117	2531.086670	30.022505
276.054688	1309.707520	5401.151855	2529.653076	29.816990
276.426422	1307.943115	5403.577148	2514.766357	29.466091
276.798065	1312.243896	5370.495117	2499.769287	29.261997
277.169708	1313.236206	5325.172852	2486.536865	29.245245
277.541321	1317.757446	5277.536133	2470.657471	29.115263
277.912903	1316.985352	5267.832031	2465.254150	29.063866
278.284424	1316.764893	5279.741211	2463.930908	28.947083
278.655945	1315.882813	5301.685547	2469.775391	28.950068
279.027435	1312.574707	5332.010254	2480.140869	29.048014
279.398865	1310.920532	5391.226563	2497.563721	29.082211
279.770294	1307.502075	5467.424805	2524.580566	29.257236
280.141663	1310.810303	5539.763672	2552.810303	29.368971
280.513031	1313.015869	5615.631348	2587.766846	29.627352
280.884369	1315.993164	5680.912598	2616.106689	29.785511
281.255676	1314.559570	5725.462402	2640.035889	30.050001
281.626953	1313.787720	5763.727051	2654.812500	30.135798
281.998199	1316.654907	5805.189453	2677.197998	30.311520
282.369385	1313.346680	5856.245605	2701.347412	30.553194
282.740540	1313.236328	5915.572754	2727.151367	30.721680
283.111694	1311.802856	5983.280273	2760.233154	31.005829
283.482819	1310.479492	6070.064941	2793.976563	31.168619
283.853912	1314.559570	6165.339844	2836.541992	31.376034
284.224945	1315.441772	6257.858398	2883.077148	31.717995
284.595978	1313.346436	6348.502930	2926.855225	32.044861
284.966980	1311.030762	6425.914551	2965.561035	32.347366
285.337952	1309.817749	6500.238281	3005.369141	32.666939
285.708893	1306.730103	6535.746094	3034.701660	33.045826
286.079803	1305.406860	6558.352051	3066.460205	33.525066
286.450684	1304.745239	6574.893066	3093.587158	33.942917
286.821533	1307.391846	6588.677246	3116.303223	34.251347
287.192322	1306.399414	6596.506836	3150.267090	34.855015
287.563110	1307.391968	6602.571289	3176.622803	35.300613
287.933868	1303.642700	6627.272461	3212.681641	35.859722
288.304596	1299.672852	6668.735352	3255.247070	36.423012
288.675262	1300.885742	6725.304199	3306.523438	36.974243
289.045929	1301.326782	6777.683594	3366.952637	37.718979
289.416565	1300.113770	6826.645020	3420.655762	38.370216
289.787170	1296.805664	6843.957520	3466.198730	39.108234
290.157745	1293.718018	6845.170898	3508.874268	39.902279
290.528259	1293.497437	6840.870605	3551.328857	40.700912
290.898773	1294.820801	6830.614746	3590.144775	41.463322
291.269226	1294.269287	6813.852539	3625.762695	42.240391
291.639679	1290.630371	6797.202148	3666.232422	43.141216
292.010101	1294.820801	6810.876465	3716.186035	43.896679
292.380463	1293.828369	6840.539551	3777.387207	44.775341
292.750824	1298.680298	6882.332031	3841.014404	45.531742
293.121155	1300.775391	6928.756836	3902.325439	46.225277
293.491455	1307.502197	6990.068359	3972.349365	46.895134
293.861725	1310.920532	7072.000977	4051.524902	47.571014
294.231964	1313.125977	7184.479004	4138.971191	48.129372
294.602142	1314.669678	7298.721680	4238.106445	48.853802
294.972321	1314.669800	7398.077148	4327.096191	49.518734
295.342468	1316.213623	7496.991699	4406.603027	50.000004
295.712555	1317.095825	7559.295410	4469.568359	50.502594
296.082672	1318.419067	7583.776855	4515.772461	51.032257
296.452728	1315.882813	7585.761719	4541.466309	51.445705
296.822693	1319.080688	7589.400879	4556.574219	51.632030
297.192657	1321.065552	7589.180664	4584.914551	52.070663
297.562622	1322.388916	7606.824219	4615.349609	52.398670
297.932556	1326.027954	7627.886230	4642.697266	52.630020
298.302460	1328.233398	7634.833496	4660.120117	52.831741
298.672333	1327.792358	7640.347656	4682.836426	53.148746
299.042145	1329.005127	7636.597656	4697.061523	53.396858
299.411957	1330.218140	7623.033691	4705.772949	53.641407
299.781677	1326.027954	7584.768555	4702.023438	53.940495
300.151428	1326.579224	7523.125977	4679.748047	54.113510
300.521149	1326.248291	7458.727051	4658.354980	54.335400
300.890839	1322.829956	7386.829590	4632.000000	54.570747
301.260468	1317.095825	7310.961914	4597.594727	54.730934
301.630096	1318.418945	7223.515625	4550.508789	54.733902
301.999695	1319.080688	7102.436523	4494.269531	54.902187
302.369232	1316.323975	6976.063965	4440.457031	55.199230
302.738739	1314.449219	6859.727051	4373.300781	55.161377
303.108246	1310.699951	6722.106445	4308.019531	55.388924
303.477692	1311.251343	6610.841309	4251.560059	55.481815
303.847137	1311.361816	6522.182129	4206.788574	55.565662
304.216553	1311.361572	6456.680176	4175.691895	55.668671
304.585876	1310.369141	6397.794434	4153.527344	55.885994
304.955231	1309.597046	6350.267090	4128.385254	55.920902
305.324493	1306.619751	6311.010254	4112.285156	56.064079
305.693787	1306.178711	6280.244629	4098.280762	56.133194
306.063049	1306.509521	6274.399414	4093.538574	56.100864
306.432251	1307.391846	6272.414551	4091.443848	56.073299
306.801422	1305.627319	6267.783691	4098.611816	56.285702
307.170593	1304.524658	6268.334961	4096.516602	56.246948
307.539673	1303.642456	6275.171875	4102.471191	56.297134
307.908783	1304.304077	6290.831055	4112.946777	56.324627
308.277832	1302.650146	6307.150879	4129.267090	56.481495
308.646851	1300.444702	6338.357910	4148.234375	56.527168
309.015839	1303.973389	6378.717773	4169.516602	56.466751
309.384796	1298.239258	6410.586914	4196.753906	56.696354
309.753723	1295.151733	6446.205566	4222.447754	56.829071
310.122620	1294.600220	6472.339844	4233.584961	56.761929
310.491486	1296.144165	6484.690430	4245.494629	56.843487
310.860352	1299.342041	6501.231445	4259.719727	56.909660
311.229126	1299.452148	6515.456055	4272.400879	56.996674
311.597931	1298.680298	6523.726074	4285.633789	57.166073
311.966675	1300.224121	6544.016602	4304.711426	57.296074
312.335388	1300.665161	6579.523926	4322.354492	57.241337
312.704071	1298.680298	6617.236816	4348.709961	57.346947
313.072723	1301.326904	6632.564941	4363.707520	57.442200
313.441345	1301.988525	6630.139160	4371.756836	57.614147
313.809875	1302.650146	6611.061523	4365.582031	57.699596
314.178436	1298.459839	6573.018066	4354.995117	57.948650
314.546967	1304.193970	6535.194824	4325.883301	57.765034
314.915466	1304.635132	6494.283691	4303.498047	57.785473
315.283936	1308.604858	6440.911621	4269.423340	57.689819
315.652374	1309.266602	6398.125977	4241.745117	57.625458
316.020752	1307.943237	6345.084961	4207.009277	57.553791
316.389130	1313.236328	6299.542480	4185.726563	57.607578
316.757416	1313.346680	6259.072266	4168.083496	57.721294
