Jaz Data File
++++++++++++++++++++++++++++++++++++
Date: Thu Sep 26 04:28:34 2019
User: jaz
Dark Spectrum Present: Yes
Reference Spectrum Present: Yes
Processed Spectrum Present: Yes
Spectrometers: JAZA3541
Integration Time (usec): 100000 (JAZA3541)
Spectra Averaged: 1 (JAZA3541)
Boxcar Smoothing: 10 (JAZA3541)
Correct for Electrical Dark: No (JAZA3541)
Strobe/Lamp Enabled: Yes (JAZA3541)
Correct for Detector Non-linearity: No (JAZA3541)
Correct for Stray Light: No (JAZA3541)
Number of Pixels in Processed Spectrum: 2048
>>>>>Begin Processed Spectral Data<<<<<
W	D	R	S	P
190.543274	0.000000	0.000000	0.000000	0.000000
190.921555	0.000000	0.000000	0.000000	0.000000
191.299805	1296.805664	1336.172974	1227.333862	-176.470795
191.678024	1229.649658	1322.278564	1222.702515	-7.499974
192.056229	1345.435913	1313.015747	1234.281128	342.856934
192.434387	1331.541504	1278.279907	1241.228271	169.565384
192.812531	1303.752808	1324.594360	1250.491211	-255.554840
193.190659	1310.699951	1296.805664	1204.176636	766.669861
193.568741	1319.962891	1359.330200	1262.069824	-147.058731
193.946793	0.000000	0.000000	0.000000	0.000000
194.324829	1207.815674	1211.785522	1106.695679	-2547.200195
194.702835	1271.994385	1273.317627	1165.911987	-8016.854004
195.080811	1337.606445	1335.070313	1226.892822	4365.450684
195.458755	1337.827148	1332.203125	1224.687378	2011.722900
195.836685	1338.268188	1331.541626	1224.246338	1695.098389
196.214569	1339.811890	1336.172974	1225.018188	3154.612549
196.592422	1341.907104	1340.032471	1225.569702	6205.873535
196.970261	1342.679077	1342.127686	1223.694946	21578.878906
197.348068	1343.781860	1343.120117	1219.724976	18746.984375
197.725861	1344.222900	1342.127563	1216.968140	6073.236328
198.103622	1343.561279	1338.157837	1222.261230	2244.866211
198.481323	1340.253052	1337.496216	1225.128418	4175.969727
198.859039	1337.937378	1335.290771	1225.238647	4258.235352
199.236694	1335.070313	1335.621460	1228.877686	-19267.552734
199.614334	1333.416138	1335.511230	1230.200928	-4926.521973
199.991959	1329.115479	1337.937134	1230.972900	-1112.518799
200.369553	1324.373657	1337.826904	1234.832520	-665.572693
200.747101	1322.499023	1341.355835	1236.376343	-456.719208
201.124619	1320.514038	1341.576294	1243.433838	-365.963654
201.502136	1316.323608	1346.538452	1243.102905	-242.333542
201.879623	1313.677246	1349.736450	1242.331055	-197.858475
202.257065	1311.030640	1351.500854	1241.779541	-171.116211
202.634476	1309.927979	1352.934570	1241.889771	-158.204132
203.011871	1305.186279	1354.809082	1242.110352	-127.110771
203.389221	1303.091064	1361.866455	1243.984985	-100.562630
203.766571	1304.745117	1367.931519	1248.175415	-89.528290
204.143875	1300.334229	1365.064331	1246.411011	-83.304703
204.521164	1296.254272	1365.284912	1244.977539	-74.281120
204.898392	1297.798096	1363.300049	1244.426025	-81.481644
205.275620	1298.459717	1368.703369	1251.593872	-66.718971
205.652817	1293.718018	1368.482910	1254.460938	-52.507370
206.029984	1293.607666	1372.673218	1253.689087	-50.487953
206.407135	1291.953613	1374.988892	1255.012329	-44.488663
206.784225	1292.394775	1374.437378	1255.343140	-45.161457
207.161301	1293.607910	1372.893555	1250.050049	-54.937893
207.538376	1298.570190	1373.555176	1249.057495	-66.030144
207.915405	1302.209229	1370.798462	1249.388428	-77.010338
208.292404	1303.422119	1370.798584	1246.741943	-84.124588
208.669373	1305.406860	1366.718506	1242.772095	-102.158028
209.046310	1302.319336	1363.961670	1236.817383	-106.261314
209.423218	1303.863159	1361.645874	1237.368774	-115.076599
209.800095	1305.737793	1357.124756	1238.692017	-130.472351
210.176956	1308.715210	1353.265137	1238.802368	-156.931442
210.553787	1308.163818	1355.911743	1237.589355	-147.806351
210.930603	1309.597412	1356.242554	1235.494141	-158.865997
211.307358	1315.221313	1353.485718	1234.611938	-210.664139
211.684113	1317.316406	1349.846680	1231.413940	-264.069305
212.060837	1316.985596	1348.413086	1235.604370	-258.949158
212.437531	1316.765015	1350.839233	1234.391357	-241.747757
212.814178	1314.008179	1354.037109	1235.383911	-196.418610
213.190826	1312.574585	1351.280273	1232.958008	-205.697357
213.567413	1313.125977	1352.383057	1231.303833	-208.426468
213.943985	1310.258789	1357.345337	1229.649780	-171.193283
214.320541	1309.266479	1357.124756	1229.429199	-166.820221
214.697052	1307.612305	1361.315186	1229.098267	-146.200790
215.073563	1309.266357	1363.300049	1232.516968	-142.039871
215.449997	1303.863159	1360.874023	1233.068237	-124.177948
215.826431	1301.326904	1362.086914	1231.965454	-114.156418
216.202850	1300.334351	1364.954102	1233.288574	-103.754311
216.579224	1298.459717	1369.695923	1232.957886	-91.950195
216.955582	1300.885742	1374.989014	1233.398926	-91.071304
217.331894	1300.554932	1374.217041	1230.421387	-95.209801
217.708191	1300.003418	1376.863647	1230.421387	-90.530609
218.084442	1300.113770	1383.480103	1231.524170	-82.274940
218.460678	1296.915771	1384.141602	1233.509155	-72.692474
218.836899	1295.041260	1385.685303	1232.406494	-69.099701
219.213074	1292.615234	1387.339478	1236.596802	-59.138432
219.589233	1294.269287	1392.191650	1237.479004	-57.995213
219.965347	1296.805542	1398.697510	1237.148193	-58.549610
220.341431	1295.592529	1399.359131	1241.118164	-52.497013
220.717499	1296.254150	1400.241455	1243.213257	-51.007084
221.093552	1295.041260	1402.336548	1245.749390	-45.940388
221.469543	1299.011108	1407.078247	1244.315796	-50.612343
221.845535	1302.980835	1407.409058	1248.616455	-52.059086
222.221466	1305.296631	1411.709595	1247.734253	-54.093388
222.597397	1305.186279	1417.884766	1247.954834	-50.782799
222.973297	1302.760376	1426.706543	1249.498657	-42.971653
223.349167	1300.554932	1437.403076	1248.175415	-38.275650
223.725006	1297.467285	1446.996826	1248.837158	-32.522087
224.100800	1295.041260	1454.385010	1251.042480	-27.612492
224.476578	1295.372070	1465.081543	1253.468506	-24.691353
224.852325	1297.577515	1475.778076	1252.365845	-25.371227
225.228058	1298.680298	1495.847778	1259.202759	-20.022337
225.603760	1297.577637	1523.195313	1264.936890	-14.467282
225.979416	1295.261963	1552.086792	1269.237427	-10.133185
226.355057	1295.372192	1590.351318	1273.317505	-7.476694
226.730652	1296.805664	1642.069214	1281.588013	-4.407547
227.106232	1296.915894	1691.912231	1285.778320	-2.819665
227.481796	1294.159180	1736.903687	1287.983765	-1.394803
227.857315	1292.946167	1778.145630	1291.622803	-0.272746
228.232788	1296.033813	1815.638184	1293.828247	-0.424470
228.608246	1296.695435	1848.058350	1300.334229	0.659963
228.983704	1297.026245	1883.345459	1305.406860	1.429361
229.359100	1297.577637	1916.206665	1311.471802	2.245961
229.734482	1293.166748	1945.870117	1310.810303	2.703151
230.109833	1290.189453	1973.768921	1316.434082	3.839294
230.485153	1290.189331	1989.979126	1321.837524	4.522529
230.860443	1289.527710	2012.585205	1325.255981	4.941277
231.235703	1293.166748	2031.331421	1332.203125	5.288302
231.610931	1293.607788	2055.481445	1337.937256	5.818480
231.986145	1293.056396	2079.300049	1341.686523	6.185122
232.361313	1290.189209	2098.708252	1346.869385	7.010370
232.736465	1287.983765	2121.313965	1354.147461	7.939673
233.111572	1285.888550	2134.656982	1359.991943	8.730697
233.486664	1288.865845	2141.052734	1363.851440	8.799196
233.861725	1290.409668	2141.604248	1365.836304	8.861268
234.236755	1292.284302	2138.957520	1366.939087	8.817426
234.611771	1296.474731	2120.873047	1364.072021	8.199591
234.986740	1298.900635	2101.023926	1364.292603	8.152359
235.361679	1299.782959	2083.710938	1368.593140	8.777616
235.736588	1298.570068	2073.235107	1370.357544	9.266905
236.111496	1297.908447	2069.375488	1378.517700	10.448827
236.486343	1298.459717	2071.139893	1376.753174	10.132712
236.861160	1301.106323	2071.250000	1380.392334	10.294964
237.235962	1300.334351	2079.961426	1386.788086	11.089114
237.610733	1302.760376	2089.996338	1396.932983	11.962438
237.985474	1301.437134	2106.978271	1402.777588	12.580420
238.360199	1300.665283	2140.501221	1414.907593	13.602932
238.734879	1301.767944	2177.662842	1427.919678	14.402611
239.109543	1300.334473	2227.616455	1443.358032	15.423955
239.484177	1304.635132	2281.650146	1468.058960	16.726849
239.858749	1310.810303	2350.680908	1492.760010	17.497341
240.233322	1311.361694	2434.047119	1520.548828	18.632748
240.607864	1313.126099	2511.899414	1553.520264	20.053347
240.982391	1314.559570	2592.618896	1580.978271	20.845566
241.356857	1316.213745	2651.063232	1603.142822	21.495237
241.731308	1315.000610	2704.435059	1626.851563	22.444452
242.105728	1317.977905	2744.684814	1649.457397	23.233889
242.480118	1312.354126	2785.926758	1671.732300	24.388222
242.854492	1310.479492	2835.880127	1696.433594	25.301819
243.228836	1309.045898	2893.442383	1717.385376	25.772556
243.603134	1312.905518	2957.290283	1746.276733	26.354612
243.977402	1312.023193	3046.721436	1781.453735	27.061222
244.351654	1310.920532	3168.241699	1835.707764	28.255060
244.725861	1310.810303	3315.235107	1884.007202	28.596579
245.100067	1311.912964	3466.970215	1948.847412	29.555340
245.474213	1311.361694	3603.377197	2009.718018	30.469091
245.848343	1316.985474	3710.341553	2062.207764	31.137127
246.222443	1318.198486	3794.700195	2099.810547	31.561136
246.596512	1318.419067	3855.019287	2132.230713	32.082771
246.970566	1321.286133	3892.181641	2158.144775	32.551250
247.344574	1320.845093	3904.862793	2172.039307	32.940727
247.718567	1317.206055	3891.740234	2177.883789	33.430424
248.092529	1318.749756	3859.430420	2178.214600	33.828133
248.466431	1315.441650	3833.075195	2170.716064	33.971363
248.840332	1313.236206	3807.051025	2165.753662	34.185272
249.214203	1311.030640	3809.476563	2171.377441	34.435280
249.588043	1313.787598	3825.797363	2180.861084	34.517124
249.961838	1310.038330	3853.696045	2197.291748	34.881008
250.335617	1313.677124	3886.888428	2216.037842	35.067493
250.709381	1313.456665	3901.664795	2221.220947	35.073082
251.083084	1318.198608	3899.569824	2228.278320	35.255672
251.456787	1314.780029	3882.367188	2222.103027	35.337574
251.830460	1316.434204	3829.656738	2203.356689	35.290249
252.204071	1313.456787	3746.069824	2170.274902	35.222130
252.577667	1310.038452	3638.995117	2139.619141	35.620274
252.951248	1310.369263	3513.615234	2092.422363	35.495495
253.324799	1308.604858	3406.099365	2046.438843	35.176918
253.698303	1305.737671	3326.152100	2014.900879	35.099888
254.071793	1305.296631	3267.817627	1994.610718	35.123909
254.445236	1304.083618	3233.853760	1977.738892	34.908577
254.818665	1300.113770	3219.959473	1969.027100	34.842037
255.192062	1300.003418	3219.077393	1967.373169	34.775612
255.565430	1300.444458	3243.888672	1972.666260	34.589199
255.938782	1301.878052	3283.365967	1988.325317	34.643021
256.312103	1304.745117	3340.266846	2014.680420	34.877316
256.685364	1306.730225	3419.442383	2046.769775	35.027939
257.058594	1304.965820	3518.357178	2086.798828	35.322853
257.431793	1302.098633	3646.714600	2131.348633	35.368267
257.804993	1302.760254	3790.178955	2176.119141	35.111053
258.178162	1299.672729	3928.240234	2221.110596	35.054756
258.551270	1298.128906	4052.517578	2265.550293	35.122906
258.924377	1294.379639	4145.587402	2299.844971	35.264542
259.297485	1293.938599	4222.999023	2328.405762	35.317371
259.670502	1293.056396	4286.625977	2353.106934	35.410919
260.043518	1295.151489	4346.063477	2373.727783	35.352585
260.416473	1298.569946	4394.473145	2394.018066	35.383797
260.789459	1297.026123	4449.830078	2413.315430	35.406239
261.162354	1297.246704	4497.467773	2433.605713	35.508766
261.535278	1298.349365	4541.796875	2451.800781	35.562511
261.908142	1298.790527	4576.092285	2460.071045	35.434044
262.280975	1301.216553	4595.279297	2475.178467	35.638725
262.653717	1302.870605	4609.834961	2478.265625	35.543022
263.026520	1300.113892	4627.809570	2477.493896	35.381241
263.399261	1297.357056	4643.688477	2481.573730	35.388504
263.771973	1296.915894	4654.495605	2480.140381	35.240398
264.144653	1298.239258	4653.502930	2470.216064	34.929501
264.517334	1301.106323	4633.103027	2459.629883	34.769650
264.889954	1302.208862	4586.678223	2434.046631	34.460293
265.262543	1305.627563	4506.179199	2404.714355	34.340542
265.635071	1308.053589	4405.610840	2366.891113	34.182987
266.007599	1311.802856	4310.224609	2327.964844	33.889893
266.380127	1312.133545	4240.201660	2295.765381	33.593201
266.752594	1315.882935	4205.575684	2278.452148	33.310432
267.125031	1315.000732	4197.084473	2271.946289	33.203255
267.497437	1313.236328	4212.963867	2270.402100	33.008816
267.869843	1316.544556	4239.098633	2276.908203	32.860424
268.242218	1313.567261	4277.473633	2289.038330	32.911671
268.614532	1311.913208	4335.697754	2308.446289	32.956482
268.986816	1312.354126	4430.973633	2331.603516	32.682709
269.359100	1311.471924	4539.150879	2358.069092	32.425690
269.731354	1310.038452	4652.510742	2391.371582	32.351299
270.103516	1311.030762	4749.219727	2413.094971	32.053627
270.475708	1311.361572	4830.049805	2437.686035	32.009785
270.847839	1314.890381	4902.499023	2462.938232	32.000366
271.219971	1318.419067	4961.053711	2474.406738	31.734932
271.592041	1320.403809	5006.596191	2480.912842	31.482595
271.964081	1321.065552	5036.369629	2487.198242	31.387274
272.336151	1316.434204	5064.048340	2488.521729	31.275564
272.708130	1316.654785	5090.182129	2492.491455	31.160147
273.080109	1313.015869	5107.385254	2491.829834	31.067453
273.452026	1311.582275	5141.238770	2496.240723	30.933804
273.823914	1310.369263	5176.085449	2503.959717	30.876308
274.195770	1310.369263	5215.893555	2514.325439	30.827003
274.567627	1309.376831	5261.987793	2522.816650	30.699703
274.939423	1310.700073	5304.332031	2533.182373	30.610790
275.311249	1312.243896	5345.464355	2543.327148	30.523579
275.682983	1310.479492	5376.120117	2548.730469	30.456478
276.054688	1309.707520	5401.151855	2546.194336	30.221279
276.426422	1307.943115	5403.577148	2536.490234	29.996506
276.798065	1312.243896	5370.495117	2524.470703	29.870670
277.169708	1313.236206	5325.172852	2501.313232	29.613554
277.541321	1317.757446	5277.536133	2485.213379	29.482857
277.912903	1316.985352	5267.832031	2477.273682	29.368093
278.284424	1316.764893	5279.741211	2476.722168	29.269852
278.655945	1315.882813	5301.685547	2484.110352	29.309717
279.027435	1312.574707	5332.010254	2501.312988	29.574757
279.398865	1310.920532	5391.226563	2529.211914	29.857841
279.770294	1307.502075	5467.424805	2557.993408	30.060446
280.141663	1310.810303	5539.763672	2585.671631	30.146027
280.513031	1313.015869	5615.631348	2612.357666	30.198885
280.884369	1315.993164	5680.912598	2635.735596	30.235207
281.255676	1314.559570	5725.462402	2653.158691	30.347509
281.626953	1313.787720	5763.727051	2675.102783	30.591766
281.998199	1316.654907	5805.189453	2699.583252	30.810242
282.369385	1313.346680	5856.245605	2723.512695	31.041105
282.740540	1313.236328	5915.572754	2742.259033	31.049940
283.111694	1311.802856	5983.280273	2762.879883	31.062485
283.482819	1310.479492	6070.064941	2801.034180	31.316902
283.853912	1314.559570	6165.339844	2833.233643	31.307831
284.224945	1315.441772	6257.858398	2871.387939	31.481485
284.595978	1313.346436	6348.502930	2911.747803	31.744822
284.966980	1311.030762	6425.914551	2953.320801	32.108063
285.337952	1309.817749	6500.238281	2989.379639	32.358879
285.708893	1306.730103	6535.746094	3014.742432	32.664124
286.079803	1305.406860	6558.352051	3038.671387	32.996052
286.450684	1304.745239	6574.893066	3060.725830	33.319378
286.821533	1307.391846	6588.677246	3082.780518	33.616604
287.192322	1306.399414	6596.506836	3106.268311	34.023296
287.563110	1307.391968	6602.571289	3137.916748	34.569649
287.933868	1303.642700	6627.272461	3173.093262	35.116089
288.304596	1299.672852	6668.735352	3222.716064	35.817112
288.675262	1300.885742	6725.304199	3283.366455	36.547340
289.045929	1301.326782	6777.683594	3346.111328	37.338409
289.416565	1300.113770	6826.645020	3391.323242	37.839458
289.787170	1296.805664	6843.957520	3434.880859	38.543655
290.157745	1293.718018	6845.170898	3474.137695	39.276558
290.528259	1293.497437	6840.870605	3520.562988	40.146309
290.898773	1294.820801	6830.614746	3565.002930	41.009151
291.269226	1294.269287	6813.852539	3602.716064	41.822849
291.639679	1290.630371	6797.202148	3650.905029	42.862869
292.010101	1294.820801	6810.876465	3702.291748	43.644791
292.380463	1293.828369	6840.539551	3764.375488	44.540760
292.750824	1298.680298	6882.332031	3827.561279	45.290806
293.121155	1300.775391	6928.756836	3892.291748	46.046997
293.491455	1307.502197	6990.068359	3963.968262	46.747646
293.861725	1310.920532	7072.000977	4041.931152	47.404488
294.231964	1313.125977	7184.479004	4125.958984	47.907749
294.602142	1314.669678	7298.721680	4218.256836	48.522095
294.972321	1314.669800	7398.077148	4306.695801	49.183388
295.342468	1316.213623	7496.991699	4381.350586	49.591438
295.712555	1317.095825	7559.295410	4454.351074	50.258812
296.082672	1318.419067	7583.776855	4501.878418	50.810497
296.452728	1315.882813	7585.761719	4529.666992	51.257515
296.822693	1319.080688	7589.400879	4551.611328	51.552879
297.192657	1321.065552	7589.180664	4576.312012	51.933418
297.562622	1322.388916	7606.824219	4603.880371	52.216167
297.932556	1326.027954	7627.886230	4629.022461	52.413025
298.302460	1328.233398	7634.833496	4651.077148	52.688354
298.672333	1327.792358	7640.347656	4669.492676	52.937363
299.042145	1329.005127	7636.597656	4681.843262	53.155590
299.411957	1330.218140	7623.033691	4689.562500	53.383804
299.781677	1326.027954	7584.768555	4690.665039	53.759014
300.151428	1326.579224	7523.125977	4675.778320	54.049446
300.521149	1326.248291	7458.727051	4654.716309	54.276066
300.890839	1322.829956	7386.829590	4628.802246	54.518017
301.260468	1317.095825	7310.961914	4595.720215	54.699661
301.630096	1318.418945	7223.515625	4560.322754	54.900097
301.999695	1319.080688	7102.436523	4510.810547	55.188198
302.369232	1316.323975	6976.063965	4451.924805	55.401852
302.738739	1314.449219	6859.727051	4388.187012	55.429825
303.108246	1310.699951	6722.106445	4324.891113	55.700699
303.477692	1311.251343	6610.841309	4261.594727	55.671162
303.847137	1311.361816	6522.182129	4210.317383	55.633381
304.216553	1311.361572	6456.680176	4178.118164	55.715824
304.585876	1310.369141	6397.794434	4152.755371	55.870819
304.955231	1309.597046	6350.267090	4137.207031	56.095913
305.324493	1306.619751	6311.010254	4121.768555	56.253582
305.693787	1306.178711	6280.244629	4113.167480	56.432480
306.063049	1306.509521	6274.399414	4108.756836	56.407196
306.432251	1307.391846	6272.414551	4112.726074	56.501945
306.801422	1305.627319	6267.783691	4120.114258	56.719028
307.170593	1304.524658	6268.334961	4128.495117	56.891182
307.539673	1303.642456	6275.171875	4136.324707	56.978085
307.908783	1304.304077	6290.831055	4143.602539	56.939396
308.277832	1302.650146	6307.150879	4156.173828	57.019146
308.646851	1300.444702	6338.357910	4173.155273	57.021835
309.015839	1303.973389	6378.717773	4201.275391	57.092571
309.384796	1298.239258	6410.586914	4221.896484	57.188152
309.753723	1295.151733	6446.205566	4240.201660	57.173737
310.122620	1294.600220	6472.339844	4253.765137	57.151676
310.491486	1296.144165	6484.690430	4268.873047	57.294064
310.860352	1299.342041	6501.231445	4282.215820	57.342121
311.229126	1299.452148	6515.456055	4291.809570	57.368774
311.597931	1298.680298	6523.726074	4304.490723	57.526970
311.966675	1300.224121	6544.016602	4318.054199	57.550526
312.335388	1300.665161	6579.523926	4333.161621	57.446064
312.704071	1298.680298	6617.236816	4351.246094	57.394630
313.072723	1301.326904	6632.564941	4361.942871	57.409100
313.441345	1301.988525	6630.139160	4366.132813	57.508591
313.809875	1302.650146	6611.061523	4355.436523	57.508476
314.178436	1298.459839	6573.018066	4341.872559	57.699860
314.546967	1304.193970	6535.194824	4315.517578	57.566875
314.915466	1304.635132	6494.283691	4288.941895	57.504986
315.283936	1308.604858	6440.911621	4260.822754	57.522240
315.652374	1309.266602	6398.125977	4226.527344	57.326416
316.020752	1307.943237	6345.084961	4198.297852	57.380848
316.389130	1313.236328	6299.542480	4175.692383	57.406345
316.757416	1313.346680	6259.072266	4162.128906	57.600895
