Jaz Data File
++++++++++++++++++++++++++++++++++++
Date: Thu Sep 26 04:28:39 2019
User: jaz
Dark Spectrum Present: Yes
Reference Spectrum Present: Yes
Processed Spectrum Present: Yes
Spectrometers: JAZA3541
Integration Time (usec): 100000 (JAZA3541)
Spectra Averaged: 1 (JAZA3541)
Boxcar Smoothing: 10 (JAZA3541)
Correct for Electrical Dark: No (JAZA3541)
Strobe/Lamp Enabled: Yes (JAZA3541)
Correct for Detector Non-linearity: No (JAZA3541)
Correct for Stray Light: No (JAZA3541)
Number of Pixels in Processed Spectrum: 2048
>>>>>Begin Processed Spectral Data<<<<<
W	D	R	S	P
190.543274	0.000000	0.000000	0.000000	0.000000
190.921555	0.000000	0.000000	0.000000	0.000000
191.299805	1296.805664	1336.172974	1169.440796	-323.529510
191.678024	1229.649658	1322.278564	1194.913818	-37.500000
192.056229	1345.435913	1313.015747	1201.860962	442.856934
192.434387	1331.541504	1278.279907	1252.806885	147.826248
192.812531	1303.752808	1324.594360	1245.859741	-277.777130
193.190659	1310.699951	1296.805664	1206.492432	750.002625
193.568741	1319.962891	1359.330200	1206.492432	-288.235229
193.946793	0.000000	0.000000	0.000000	0.000000
194.324829	1207.815674	1211.785522	1111.217041	-2433.307617
194.702835	1271.994385	1273.317627	1168.227905	-7841.835938
195.080811	1337.606445	1335.070313	1227.995605	4321.967773
195.458755	1337.827148	1332.203125	1230.090820	1915.645020
195.836685	1338.268188	1331.541626	1229.539429	1616.408936
196.214569	1339.811890	1336.172974	1232.626953	2945.518311
196.592422	1341.907104	1340.032471	1232.737305	5823.526855
196.970261	1342.679077	1342.127686	1231.414063	20178.945313
197.348068	1343.781860	1343.120117	1232.296265	16847.259766
197.725861	1344.222900	1342.127563	1233.509155	5283.815918
198.103622	1343.561279	1338.157837	1235.604248	1997.930664
198.481323	1340.253052	1337.496216	1234.611816	3831.973877
198.859039	1337.937378	1335.290771	1238.802124	3745.749756
199.236694	1335.070313	1335.621460	1237.037720	-17786.998047
199.614334	1333.416138	1335.511230	1236.155518	-4642.306152
199.991959	1329.115479	1337.937134	1240.015137	-1010.018433
200.369553	1324.373657	1337.826904	1240.125488	-626.229248
200.747101	1322.499023	1341.355835	1232.847412	-475.433563
201.124619	1320.514038	1341.576294	1234.170654	-409.943665
201.502136	1316.323608	1346.538452	1229.208374	-288.319336
201.879623	1313.677246	1349.736450	1231.855103	-226.910568
202.257065	1311.030640	1351.500854	1230.531860	-198.908707
202.634476	1309.927979	1352.934570	1234.281128	-175.895950
203.011871	1305.186279	1354.809082	1235.053101	-141.332565
203.389221	1303.091064	1361.866455	1231.744995	-121.387657
203.766571	1304.745117	1367.931519	1236.927734	-107.329079
204.143875	1300.334229	1365.064331	1235.824951	-99.658852
204.521164	1296.254272	1365.284912	1238.581787	-83.546211
204.898392	1297.798096	1363.300049	1241.448730	-86.027000
205.275620	1298.459717	1368.703369	1242.771973	-79.277977
205.652817	1293.718018	1368.482910	1243.764404	-66.814262
206.029984	1293.607666	1372.673218	1239.904907	-67.921814
206.407135	1291.953613	1374.988892	1238.912476	-63.877834
206.784225	1292.394775	1374.437378	1233.067993	-72.312164
207.161301	1293.607910	1372.893555	1232.516602	-77.052170
207.538376	1298.570190	1373.555176	1233.398682	-86.912743
207.915405	1302.209229	1370.798462	1234.060425	-99.357872
208.292404	1303.422119	1370.798584	1236.486450	-99.345772
208.669373	1305.406860	1366.718506	1238.802124	-108.633095
209.046310	1302.319336	1363.961670	1236.927490	-106.082687
209.423218	1303.863159	1361.645874	1238.692017	-112.786568
209.800095	1305.737793	1357.124756	1233.950317	-139.699783
210.176956	1308.715210	1353.265137	1234.391357	-166.832718
210.553787	1308.163818	1355.911743	1232.626953	-158.199265
210.930603	1309.597412	1356.242554	1233.398926	-163.357819
211.307358	1315.221313	1353.485718	1236.817383	-204.900436
211.684113	1317.316406	1349.846680	1232.075684	-262.035065
212.060837	1316.985596	1348.413086	1229.098267	-279.651123
212.437531	1316.765015	1350.839233	1226.451782	-265.048584
212.814178	1314.008179	1354.037109	1226.672241	-218.182037
213.190826	1312.574585	1351.280273	1224.025635	-228.775024
213.567413	1313.125977	1352.383057	1224.466919	-225.842209
213.943985	1310.258789	1357.345337	1227.995605	-174.706345
214.320541	1309.266479	1357.124756	1229.318848	-167.050797
214.697052	1307.612305	1361.315186	1229.318604	-145.790512
215.073563	1309.266357	1363.300049	1231.744751	-143.469025
215.449997	1303.863159	1360.874023	1233.509155	-123.404556
215.826431	1301.326904	1362.086914	1236.376099	-106.897293
216.202850	1300.334351	1364.954102	1233.178345	-103.924889
216.579224	1298.459717	1369.695923	1231.524292	-93.962646
216.955582	1300.885742	1374.989014	1234.722290	-89.285469
217.331894	1300.554932	1374.217041	1236.265991	-87.275452
217.708191	1300.003418	1376.863647	1237.809937	-80.917641
218.084442	1300.113770	1383.480103	1238.140869	-74.338043
218.460678	1296.915771	1384.141602	1238.361206	-67.129845
218.836899	1295.041260	1385.685303	1235.273682	-65.936577
219.213074	1292.615234	1387.339478	1235.273560	-60.535374
219.589233	1294.269287	1392.191650	1239.022827	-56.418633
219.965347	1296.805542	1398.697510	1245.087769	-50.757458
220.341431	1295.592529	1399.359131	1244.867310	-48.883957
220.717499	1296.254150	1400.241455	1242.992798	-51.219090
221.093552	1295.041260	1402.336548	1243.433838	-48.098499
221.469543	1299.011108	1407.078247	1243.764404	-51.122574
221.845535	1302.980835	1407.409058	1241.889893	-58.500412
222.221466	1305.296631	1411.709595	1244.315796	-57.305832
222.597397	1305.186279	1417.884766	1247.513794	-51.174145
222.973297	1302.760376	1426.706543	1248.506226	-43.772350
223.349167	1300.554932	1437.403076	1246.190430	-39.726151
223.725006	1297.467285	1446.996826	1244.867188	-35.177059
224.100800	1295.041260	1454.385010	1250.601318	-27.889353
224.476578	1295.372070	1465.081543	1255.563599	-23.456835
224.852325	1297.577515	1475.778076	1252.255371	-25.433222
225.228058	1298.680298	1495.847778	1253.027344	-23.154404
225.603760	1297.577637	1523.195313	1257.769165	-17.644217
225.979416	1295.261963	1552.086792	1260.746460	-13.439317
226.355057	1295.372192	1590.351318	1262.841675	-11.028074
226.730652	1296.805664	1642.069214	1269.678589	-7.856918
227.106232	1296.915894	1691.912231	1274.310059	-5.723049
227.481796	1294.159180	1736.903687	1280.485352	-3.088424
227.857315	1292.946167	1778.145630	1284.896240	-1.659096
228.232788	1296.033813	1815.638184	1288.755859	-1.400672
228.608246	1296.695435	1848.058350	1294.379761	-0.419991
228.983704	1297.026245	1883.345459	1300.334473	0.564237
229.359100	1297.577637	1916.206665	1304.745239	1.158627
229.734482	1293.166748	1945.870117	1311.582275	2.821424
230.109833	1290.189453	1973.768921	1313.567139	3.419893
230.485153	1290.189331	1989.979126	1315.882935	3.671617
230.860443	1289.527710	2012.585205	1319.411499	4.132976
231.235703	1293.166748	2031.331421	1322.609619	3.988659
231.610931	1293.607788	2055.481445	1324.815063	4.096122
231.986145	1293.056396	2079.300049	1325.917725	4.179535
232.361313	1290.189209	2098.708252	1332.644287	5.250968
232.736465	1287.983765	2121.313965	1338.598999	6.073851
233.111572	1285.888550	2134.656982	1344.443359	6.898797
233.486664	1288.865845	2141.052734	1349.405518	7.104037
233.861725	1290.409668	2141.604248	1355.360352	7.630533
234.236755	1292.284302	2138.957520	1359.771240	7.970837
234.611771	1296.474731	2120.873047	1360.322510	7.744773
234.986740	1298.900635	2101.023926	1361.866333	7.849878
235.361679	1299.782959	2083.710938	1360.763550	7.778851
235.736588	1298.570068	2073.235107	1357.455444	7.601398
236.111496	1297.908447	2069.375488	1358.778809	7.890209
236.486343	1298.459717	2071.139893	1362.528076	8.291705
236.861160	1301.106323	2071.250000	1369.144409	8.834467
237.235962	1300.334351	2079.961426	1375.870972	9.688814
237.610733	1302.760376	2089.996338	1381.164185	9.959378
237.985474	1301.437134	2106.978271	1390.757813	11.088283
238.360199	1300.665283	2140.501221	1401.785034	12.040418
238.734879	1301.767944	2177.662842	1416.010254	13.042925
239.109543	1300.334473	2227.616455	1434.094971	14.425008
239.484177	1304.635132	2281.650146	1458.796021	15.778764
239.858749	1310.810303	2350.680908	1484.268921	16.680788
240.233322	1311.361694	2434.047119	1508.087769	17.522814
240.607864	1313.126099	2511.899414	1535.325195	18.535540
240.982391	1314.559570	2592.618896	1563.334473	19.465052
241.356857	1316.213745	2651.063232	1589.579468	20.479141
241.731308	1315.000610	2704.435059	1609.208008	21.174616
242.105728	1317.977905	2744.684814	1630.711182	21.919939
242.480118	1312.354126	2785.926758	1648.134277	22.786806
242.854492	1310.479492	2835.880127	1671.842773	23.689730
243.228836	1309.045898	2893.442383	1696.433594	24.450174
243.603134	1312.905518	2957.290283	1730.397461	25.388945
243.977402	1312.023193	3046.721436	1766.236206	26.183979
244.351654	1310.920532	3168.241699	1814.314941	27.103251
244.725861	1310.810303	3315.235107	1868.679321	27.831875
245.100067	1311.912964	3466.970215	1925.249023	28.460316
245.474213	1311.361694	3603.377197	1989.317383	29.579018
245.848343	1316.985474	3710.341553	2039.381104	30.183376
246.222443	1318.198486	3794.700195	2084.041504	30.924389
246.596512	1318.419067	3855.019287	2114.476807	31.382864
246.970566	1321.286133	3892.181641	2137.744141	31.757729
247.344574	1320.845093	3904.862793	2145.684082	31.920795
247.718567	1317.206055	3891.740234	2150.425537	32.363892
248.092529	1318.749756	3859.430420	2153.733887	32.864586
248.466431	1315.441650	3833.075195	2156.049805	33.388821
248.840332	1313.236206	3807.051025	2155.167725	33.760784
249.214203	1311.030640	3809.476563	2154.616211	33.764412
249.588043	1313.787598	3825.797363	2167.849121	33.999134
249.961838	1310.038330	3853.696045	2183.066895	34.321777
250.335617	1313.677124	3886.888428	2204.790283	34.630390
250.709381	1313.456665	3901.664795	2219.346191	35.000645
251.083084	1318.198608	3899.569824	2226.183105	35.174503
251.456787	1314.780029	3882.367188	2216.479004	35.118534
251.830460	1316.434204	3829.656738	2205.451904	35.373615
252.204071	1313.456787	3746.069824	2179.978516	35.621025
252.577667	1310.038452	3638.995117	2145.794189	35.885414
252.951248	1310.369263	3513.615234	2104.552246	36.046040
253.324799	1308.604858	3406.099365	2059.119873	35.781498
253.698303	1305.737671	3326.152100	2028.464233	35.771202
254.071793	1305.296631	3267.817627	2002.991211	35.550938
254.445236	1304.083618	3233.853760	1989.207031	35.502850
254.818665	1300.113770	3219.959473	1981.818848	35.508327
255.192062	1300.003418	3219.077393	1987.773682	35.838654
255.565430	1300.444458	3243.888672	1996.705688	35.826149
255.938782	1301.878052	3283.365967	2011.592651	35.817257
256.312103	1304.745117	3340.266846	2028.133423	35.538227
256.685364	1306.730225	3419.442383	2056.804199	35.502895
257.058594	1304.965820	3518.357178	2092.753174	35.591869
257.431793	1302.098633	3646.714600	2131.899902	35.391777
257.804993	1302.760254	3790.178955	2183.397217	35.403648
258.178162	1299.672729	3928.240234	2232.468262	35.486839
258.551270	1298.128906	4052.517578	2276.687744	35.527260
258.924377	1294.379639	4145.587402	2313.408447	35.740250
259.297485	1293.938599	4222.999023	2347.262207	35.961140
259.670502	1293.056396	4286.625977	2370.750488	36.000301
260.043518	1295.151489	4346.063477	2387.180908	35.793541
260.416473	1298.569946	4394.473145	2403.832520	35.700809
260.789459	1297.026123	4449.830078	2423.902100	35.742023
261.162354	1297.246704	4497.467773	2437.686035	35.636265
261.535278	1298.349365	4541.796875	2444.964111	35.351727
261.908142	1298.790527	4576.092285	2452.241943	35.195156
262.280975	1301.216553	4595.279297	2462.938477	35.267147
262.653717	1302.870605	4609.834961	2469.554443	35.279602
263.026520	1300.113892	4627.809570	2471.870361	35.212246
263.399261	1297.357056	4643.688477	2475.288574	35.200684
263.771973	1296.915894	4654.495605	2474.847656	35.082764
264.144653	1298.239258	4653.502930	2472.201172	34.988663
264.517334	1301.106323	4633.103027	2464.371826	34.911964
264.889954	1302.208862	4586.678223	2447.500244	34.869907
265.262543	1305.627563	4506.179199	2421.806641	34.874584
265.635071	1308.053589	4405.610840	2379.461914	34.588814
266.007599	1311.802856	4310.224609	2334.139648	34.095829
266.380127	1312.133545	4240.201660	2300.837402	33.766422
266.752594	1315.882935	4205.575684	2278.672363	33.318054
267.125031	1315.000732	4197.084473	2265.770752	32.988979
267.497437	1313.236328	4212.963867	2261.469971	32.700783
267.869843	1316.544556	4239.098633	2262.903809	32.381237
268.242218	1313.567261	4277.473633	2272.607910	32.357319
268.614532	1311.913208	4335.697754	2286.722412	32.238049
268.986816	1312.354126	4430.973633	2309.108154	31.961386
269.359100	1311.471924	4539.150879	2342.410645	31.940559
269.731354	1310.038452	4652.510742	2375.051025	31.863020
270.103516	1311.030762	4749.219727	2400.083252	31.675179
270.475708	1311.361572	4830.049805	2425.445801	31.661919
270.847839	1314.890381	4902.499023	2443.750977	31.465544
271.219971	1318.419067	4961.053711	2460.181641	31.344416
271.592041	1320.403809	5006.596191	2469.444580	31.171482
271.964081	1321.065552	5036.369629	2471.760254	30.971748
272.336151	1316.434204	5064.048340	2472.311523	30.843018
272.708130	1316.654785	5090.182129	2473.744873	30.663355
273.080109	1313.015869	5107.385254	2473.414307	30.582115
273.452026	1311.582275	5141.238770	2477.053223	30.432781
273.823914	1310.369263	5176.085449	2486.867676	30.434164
274.195770	1310.369263	5215.893555	2494.145752	30.310308
274.567627	1309.376831	5261.987793	2502.305664	30.180780
274.939423	1310.700073	5304.332031	2518.184814	30.235254
275.311249	1312.243896	5345.464355	2527.778564	30.138067
275.682983	1310.479492	5376.120117	2540.239502	30.247631
276.054688	1309.707520	5401.151855	2541.121582	30.097294
276.426422	1307.943115	5403.577148	2540.790771	30.101509
276.798065	1312.243896	5370.495117	2531.858887	30.052723
277.169708	1313.236206	5325.172852	2514.766602	29.948889
277.541321	1317.757446	5277.536133	2500.320801	29.864380
277.912903	1316.985352	5267.832031	2495.468750	29.828629
278.284424	1316.764893	5279.741211	2490.727051	29.623245
278.655945	1315.882813	5301.685547	2497.012695	29.633425
279.027435	1312.574707	5332.010254	2507.488525	29.728399
279.398865	1310.920532	5391.226563	2527.227051	29.809198
279.770294	1307.502075	5467.424805	2556.780273	30.031282
280.141663	1310.810303	5539.763672	2582.583984	30.073015
280.513031	1313.015869	5615.631348	2609.931641	30.142500
280.884369	1315.993164	5680.912598	2630.111816	30.106367
281.255676	1314.559570	5725.462402	2648.857910	30.250006
281.626953	1313.787720	5763.727051	2665.067871	30.366259
281.998199	1316.654907	5805.189453	2680.395996	30.382769
282.369385	1313.346680	5856.245605	2700.465576	30.533783
282.740540	1313.236328	5915.572754	2721.307129	30.594696
283.111694	1311.802856	5983.280273	2749.978027	30.786303
283.482819	1310.479492	6070.064941	2781.846680	30.913767
283.853912	1314.559570	6165.339844	2821.434570	31.064590
284.224945	1315.441772	6257.858398	2859.037354	31.231596
284.595978	1313.346436	6348.502930	2899.066162	31.492960
284.966980	1311.030762	6425.914551	2941.410889	31.875214
285.337952	1309.817749	6500.238281	2974.382324	32.069939
285.708893	1306.730103	6535.746094	2999.303955	32.368877
286.079803	1305.406860	6558.352051	3032.275391	32.874290
286.450684	1304.745239	6574.893066	3058.079346	33.269161
286.821533	1307.391846	6588.677246	3080.685059	33.576927
287.192322	1306.399414	6596.506836	3106.819824	34.033722
287.563110	1307.391968	6602.571289	3139.239990	34.594639
287.933868	1303.642700	6627.272461	3178.717529	35.221737
288.304596	1299.672852	6668.735352	3219.628662	35.759609
288.675262	1300.885742	6725.304199	3274.213867	36.378613
289.045929	1301.326782	6777.683594	3334.863525	37.133022
289.416565	1300.113770	6826.645020	3387.573730	37.771614
289.787170	1296.805664	6843.957520	3439.181641	38.621189
290.157745	1293.718018	6845.170898	3485.716553	39.485130
290.528259	1293.497437	6840.870605	3525.855713	40.241722
290.898773	1294.820801	6830.614746	3561.252930	40.941410
291.269226	1294.269287	6813.852539	3602.605225	41.820839
291.639679	1290.630371	6797.202148	3641.752197	42.696651
292.010101	1294.820801	6810.876465	3695.234375	43.516850
292.380463	1293.828369	6840.539551	3758.641113	44.437374
292.750824	1298.680298	6882.332031	3816.975342	45.101215
293.121155	1300.775391	6928.756836	3884.352051	45.905918
293.491455	1307.502197	6990.068359	3958.124268	46.644806
293.861725	1310.920532	7072.000977	4028.037598	47.163326
294.231964	1313.125977	7184.479004	4116.585938	47.748108
294.602142	1314.669678	7298.721680	4212.192383	48.420750
294.972321	1314.669800	7398.077148	4302.836426	49.119949
295.342468	1316.213623	7496.991699	4383.335938	49.623562
295.712555	1317.095825	7559.295410	4449.499023	50.181080
296.082672	1318.419067	7583.776855	4506.068848	50.877380
296.452728	1315.882813	7585.761719	4540.252930	51.426353
296.822693	1319.080688	7589.400879	4567.380371	51.804367
297.192657	1321.065552	7589.180664	4589.104004	52.137501
297.562622	1322.388916	7606.824219	4611.048340	52.330227
297.932556	1326.027954	7627.886230	4637.403320	52.546017
298.302460	1328.233398	7634.833496	4662.545410	52.870197
298.672333	1327.792358	7640.347656	4688.238770	53.234329
299.042145	1329.005127	7636.597656	4702.243164	53.479008
299.411957	1330.218140	7623.033691	4714.263184	53.776325
299.781677	1326.027954	7584.768555	4707.536621	54.028580
300.151428	1326.579224	7523.125977	4692.318848	54.316376
300.521149	1326.248291	7458.727051	4669.051270	54.509819
300.890839	1322.829956	7386.829590	4638.726563	54.681675
301.260468	1317.095825	7310.961914	4604.432129	54.845009
301.630096	1318.418945	7223.515625	4563.300293	54.950520
301.999695	1319.080688	7102.436523	4509.377441	55.163418
302.369232	1316.323975	6976.063965	4449.058105	55.351200
302.738739	1314.449219	6859.727051	4380.137695	55.284668
303.108246	1310.699951	6722.106445	4315.848145	55.533592
303.477692	1311.251343	6610.841309	4255.859863	55.562950
303.847137	1311.361816	6522.182129	4205.134766	55.533924
304.216553	1311.361572	6456.680176	4173.927246	55.634373
304.585876	1310.369141	6397.794434	4142.830566	55.675735
304.955231	1309.597046	6350.267090	4125.958984	55.872768
305.324493	1306.619751	6311.010254	4110.520996	56.028828
305.693787	1306.178711	6280.244629	4094.641846	56.060036
306.063049	1306.509521	6274.399414	4089.018311	56.009876
306.432251	1307.391846	6272.414551	4090.230957	56.048874
306.801422	1305.627319	6267.783691	4090.230957	56.116806
307.170593	1304.524658	6268.334961	4094.200928	56.200298
307.539673	1303.642456	6275.171875	4103.574219	56.319324
307.908783	1304.304077	6290.831055	4106.330566	56.191944
308.277832	1302.650146	6307.150879	4124.305176	56.382347
308.646851	1300.444702	6338.357910	4153.857910	56.638790
309.015839	1303.973389	6378.717773	4176.243164	56.599300
309.384796	1298.239258	6410.586914	4202.818848	56.814987
309.753723	1295.151733	6446.205566	4226.858398	56.914696
310.122620	1294.600220	6472.339844	4242.075684	56.925911
310.491486	1296.144165	6484.690430	4258.286621	57.090027
310.860352	1299.342041	6501.231445	4268.761719	57.083481
311.229126	1299.452148	6515.456055	4282.987305	57.199635
311.597931	1298.680298	6523.726074	4292.912109	57.305370
311.966675	1300.224121	6544.016602	4305.262207	57.306580
312.335388	1300.665161	6579.523926	4327.207031	57.333263
312.704071	1298.680298	6617.236816	4350.584473	57.382191
313.072723	1301.326904	6632.564941	4369.992676	57.560093
313.441345	1301.988525	6630.139160	4373.962402	57.655540
313.809875	1302.650146	6611.061523	4362.383789	57.639351
314.178436	1298.459839	6573.018066	4344.299316	57.745869
314.546967	1304.193970	6535.194824	4322.906250	57.708122
314.915466	1304.635132	6494.283691	4296.881836	57.657982
315.283936	1308.604858	6440.911621	4267.880371	57.659756
315.652374	1309.266602	6398.125977	4246.045898	57.709972
316.020752	1307.943237	6345.084961	4221.014648	57.831833
316.389130	1313.236328	6299.542480	4184.844727	57.589893
316.757416	1313.346680	6259.072266	4161.135742	57.580814
