Jaz Data File
++++++++++++++++++++++++++++++++++++
Date: Fri Jun 21 02:56:19 2019
User: jaz
Dark Spectrum Present: Yes
Reference Spectrum Present: Yes
Processed Spectrum Present: Yes
Spectrometers: JAZA3541
Integration Time (usec): 119000 (JAZA3541)
Spectra Averaged: 1 (JAZA3541)
Boxcar Smoothing: 10 (JAZA3541)
Correct for Electrical Dark: No (JAZA3541)
Strobe/Lamp Enabled: Yes (JAZA3541)
Correct for Detector Non-linearity: No (JAZA3541)
Correct for Stray Light: No (JAZA3541)
Number of Pixels in Processed Spectrum: 2048
>>>>>Begin Processed Spectral Data<<<<<
W	D	R	S	P
190.543274	0.000000	0.000000	0.000000	0.000000
190.921555	0.000000	0.000000	0.000000	0.000000
191.299805	1558.482544	1405.644653	1685.847290	-83.333229
191.678024	1533.009521	1440.380615	1627.954224	-102.500076
192.056229	1539.956665	1535.325317	1655.742920	-2500.055420
192.434387	1519.115234	1551.535278	1667.321533	457.144043
192.812531	1604.796997	1597.849854	1757.634766	-2200.008789
193.190659	1556.166748	1542.272461	1646.479980	-650.002625
193.568741	1623.322754	1530.693848	1720.583252	-105.000160
193.946793	0.000000	0.000000	0.000000	0.000000
194.324829	1410.165894	1403.770142	1534.773804	-1948.291748
194.702835	1483.938232	1477.322021	1616.044678	-1996.708496
195.080811	1555.725708	1551.645752	1696.874390	-3459.563721
195.458755	1552.307251	1560.467407	1695.992432	1760.814087
195.836685	1553.520386	1565.540039	1699.521240	1214.684448
196.214569	1554.953857	1568.627808	1701.726563	1073.374634
196.592422	1551.425171	1571.164063	1705.255371	779.325439
196.970261	1549.219727	1570.833130	1702.498535	709.184021
197.348068	1548.999146	1571.274170	1706.137329	705.445618
197.725861	1545.690796	1573.810425	1704.814209	565.880188
198.103622	1539.625854	1573.589844	1705.475830	488.311249
198.481323	1540.287598	1569.399536	1703.380615	560.227295
198.859039	1539.846436	1568.958374	1703.490845	562.121338
199.236694	1536.758789	1568.296631	1705.806763	536.016296
199.614334	1539.295166	1566.201660	1707.130005	623.770752
199.991959	1540.728760	1571.604858	1706.137451	535.717590
200.369553	1537.751465	1570.502075	1701.616211	500.341034
200.747101	1536.759033	1571.935669	1697.977295	458.310638
201.124619	1535.215210	1570.502197	1692.022705	444.377686
201.502136	1531.796631	1571.274048	1693.345947	409.219574
201.879623	1529.922119	1568.517334	1690.258545	415.430847
202.257065	1525.621216	1569.730225	1690.148071	373.000580
202.634476	1525.621216	1573.589600	1689.486206	341.610413
203.011871	1524.187744	1573.258911	1692.243286	342.473083
203.389221	1524.408203	1571.715088	1693.676758	357.809570
203.766571	1523.415649	1570.722656	1693.015259	358.508423
204.143875	1523.305542	1567.635010	1692.132813	380.846588
204.521164	1526.613770	1564.878296	1687.170776	419.597534
204.898392	1524.408203	1563.444702	1685.516357	412.711578
205.275620	1523.856812	1563.665405	1683.862305	401.937073
205.652817	1524.297852	1562.783081	1680.774780	406.589569
206.029984	1529.370483	1566.422241	1677.797241	400.593018
206.407135	1528.378052	1568.848267	1680.774780	376.565155
206.784225	1530.473389	1569.950928	1679.451416	377.374146
207.161301	1530.252808	1570.281616	1676.694702	365.841248
207.538376	1528.929443	1571.274170	1678.238647	352.604004
207.915405	1529.260376	1568.517456	1682.208496	389.606445
208.292404	1529.480835	1568.737671	1681.877563	388.204315
208.669373	1525.952148	1570.833008	1682.759644	349.386139
209.046310	1524.628784	1571.053589	1684.193237	343.705170
209.423218	1528.267822	1569.509644	1681.987671	372.728088
209.800095	1530.032227	1570.612549	1684.083008	379.619415
210.176956	1530.032227	1570.833130	1684.965210	379.729309
210.553787	1531.686279	1566.201660	1684.413818	442.491241
210.930603	1535.435425	1566.091553	1681.215942	475.534668
211.307358	1536.648438	1565.760620	1682.098267	499.618439
211.684113	1538.412842	1570.391968	1679.341309	440.688934
212.060837	1534.773804	1573.920776	1678.018066	365.914032
212.437531	1533.340210	1574.802856	1680.664429	355.317932
212.814178	1532.458130	1578.772705	1684.854736	329.046753
213.190826	1532.788940	1580.426758	1684.083008	317.592346
213.567413	1530.914307	1580.095947	1686.177979	315.694366
213.943985	1528.267822	1576.015869	1687.611572	333.717834
214.320541	1528.488281	1577.669800	1684.524170	317.265289
214.697052	1527.716431	1577.228760	1686.729492	321.158508
215.073563	1529.591064	1581.198486	1689.486206	309.829742
215.449997	1529.921875	1582.852661	1683.531616	290.208679
215.826431	1528.708862	1588.586670	1681.105713	254.513077
216.202850	1529.370483	1590.792236	1684.744629	252.962738
216.579224	1533.119751	1588.807495	1684.854858	272.474854
216.955582	1533.560791	1588.586914	1686.950195	278.757416
217.331894	1531.135010	1586.932861	1690.037720	284.782837
217.708191	1532.017090	1588.035400	1686.729370	276.181610
218.084442	1537.420532	1591.674438	1688.493896	278.456207
218.460678	1534.443115	1598.180420	1688.162964	241.177200
218.836899	1532.678711	1603.694214	1687.280884	217.702011
219.213074	1532.127563	1606.892090	1681.767334	200.148087
219.589233	1531.024658	1605.348389	1686.729492	209.495453
219.965347	1533.891846	1609.869385	1688.824829	203.919449
220.341431	1535.987061	1615.713867	1687.060425	189.488800
220.717499	1535.435669	1614.721558	1683.972900	187.343842
221.093552	1534.002075	1619.242554	1686.068115	178.396515
221.469543	1535.104858	1625.197510	1689.045410	170.869156
221.845535	1536.207642	1630.380249	1692.243164	165.690994
222.221466	1537.310303	1634.350098	1693.566650	161.022964
222.597397	1535.435547	1642.069214	1695.441040	150.051575
222.973297	1537.420532	1647.362183	1699.080200	147.041336
223.349167	1536.979492	1655.853271	1703.821777	140.352463
223.725006	1537.530640	1662.359375	1704.483398	133.745453
224.100800	1538.082153	1671.952881	1704.703857	124.464630
224.476578	1538.854004	1682.097900	1706.468140	117.013107
224.852325	1537.971680	1701.726563	1708.894287	104.377106
225.228058	1541.279907	1724.332397	1709.445679	91.867516
225.603760	1540.838867	1750.246460	1711.761475	81.621971
225.979416	1536.317749	1779.248169	1710.107178	71.538765
226.355057	1535.325195	1813.322388	1713.415405	64.061874
226.730652	1533.671143	1852.028076	1716.061890	57.291275
227.106232	1534.773926	1886.543335	1724.773682	54.012585
227.481796	1531.575928	1920.286865	1724.332642	49.588703
227.857315	1528.378052	1946.972900	1726.979126	47.444702
228.232788	1528.819214	1971.673950	1730.948608	45.642368
228.608246	1531.465698	1999.903687	1733.926025	43.220306
228.983704	1534.112305	2022.950684	1736.241821	41.348946
229.359100	1531.575928	2040.263428	1737.895996	40.559296
229.734482	1528.378052	2061.546143	1734.036499	38.572910
230.109833	1529.039795	2075.881592	1734.146729	37.507545
230.485153	1528.488403	2087.349609	1736.021362	37.134972
230.860443	1521.541260	2101.575195	1732.933838	36.444862
231.235703	1520.879517	2121.534668	1736.352295	35.872959
231.610931	1519.225464	2137.523926	1736.462646	35.134678
231.986145	1517.240479	2152.079834	1734.367554	34.201893
232.361313	1516.468506	2165.532959	1731.941406	33.197456
232.736465	1519.115112	2169.833984	1728.743652	32.214916
233.111572	1517.571289	2172.921387	1729.625610	32.357410
233.486664	1518.894653	2171.708252	1735.911133	33.243252
233.861725	1517.350586	2169.944092	1738.668213	33.913551
234.236755	1520.107422	2156.931885	1738.116577	34.233791
234.611771	1522.313110	2138.516357	1738.778320	35.128864
234.986740	1523.415771	2132.671875	1736.352173	34.950230
235.361679	1526.062256	2128.922607	1738.226807	35.192986
235.736588	1526.393188	2124.952881	1736.572754	35.114220
236.111496	1527.936890	2122.196045	1736.021606	35.015820
236.486343	1528.819092	2122.857666	1735.139282	34.731785
236.861160	1527.716309	2128.371582	1737.234619	34.881622
237.235962	1529.370483	2138.626465	1737.896240	34.226295
237.610733	1532.016968	2152.962158	1743.740723	34.097012
237.985474	1532.016968	2177.111572	1751.900879	34.085529
238.360199	1533.009521	2207.988037	1754.877930	32.870441
238.734879	1534.994385	2240.628662	1757.193604	31.489288
239.109543	1532.347900	2281.539551	1761.273804	30.556387
239.484177	1533.450562	2334.360352	1770.647095	29.615887
239.858749	1535.325195	2397.105469	1781.674316	28.586071
240.233322	1530.804199	2464.923096	1796.009644	28.390972
240.607864	1528.709106	2528.660889	1807.588135	27.889248
240.982391	1529.370728	2583.025391	1811.888916	26.813168
241.356857	1527.826904	2627.685547	1812.440308	25.877272
241.731308	1533.340454	2665.288574	1818.725830	25.211878
242.105728	1529.150024	2699.583252	1827.106445	25.456934
242.480118	1528.708984	2736.414307	1833.612549	25.246519
242.854492	1529.480957	2770.378418	1839.898071	25.015533
243.228836	1527.606323	2818.898193	1847.176025	24.748062
243.603134	1531.245361	2883.187256	1859.416260	24.274038
243.977402	1529.150146	2971.956787	1873.861938	23.891752
244.351654	1526.724121	3079.692871	1894.372803	23.673927
244.725861	1527.495972	3195.809814	1909.810791	22.916241
245.100067	1529.260376	3309.391113	1929.218994	22.467936
245.474213	1530.693970	3406.872070	1945.428955	22.105310
245.848343	1529.150146	3476.453857	1951.824829	21.705637
246.222443	1528.378174	3532.362061	1956.566650	21.366861
246.596512	1530.252808	3565.884766	1963.403442	21.278435
246.970566	1530.804077	3581.543457	1966.711670	21.256121
247.344574	1531.134888	3573.714355	1967.704102	21.373426
247.718567	1528.157471	3552.431641	1965.608765	21.610279
248.092529	1533.561035	3529.936035	1959.543945	21.337820
248.466431	1533.891724	3510.307617	1958.441040	21.480768
248.840332	1534.002197	3506.668945	1959.654419	21.577503
249.214203	1533.891846	3516.923828	1965.939941	21.787249
249.588043	1529.811768	3538.868408	1969.358398	21.878260
249.961838	1525.952148	3566.656982	1972.776733	21.895601
250.335617	1524.629028	3592.460938	1976.195313	21.837667
250.709381	1522.423584	3603.377930	1983.031982	22.134480
251.083084	1521.320801	3591.468262	1983.803955	22.340590
251.456787	1521.982422	3561.474365	1978.731445	22.395235
251.830460	1521.762085	3509.425293	1970.240112	22.563080
252.204071	1522.203125	3429.367188	1956.786865	22.786909
252.577667	1521.761963	3337.069092	1944.436401	23.283907
252.951248	1521.541260	3250.725830	1929.990845	23.620935
253.324799	1517.020142	3177.835449	1914.663086	23.942635
253.698303	1516.248169	3130.969482	1913.119263	24.578302
254.071793	1518.233032	3092.374268	1912.788452	25.064804
254.445236	1520.769287	3078.479736	1911.795776	25.102642
254.818665	1521.541260	3072.855957	1910.362183	25.063961
255.192062	1521.320801	3089.396729	1910.913452	24.845266
255.565430	1525.511108	3120.272949	1919.404541	24.699202
255.938782	1522.092651	3155.891113	1929.990845	24.966249
256.312103	1523.636475	3214.445801	1935.725098	24.372271
256.685364	1522.202881	3288.438721	1947.744751	24.093151
257.058594	1520.107666	3374.341064	1961.198120	23.788292
257.431793	1523.195435	3472.593750	1978.180054	23.339746
257.804993	1527.716431	3583.969238	1990.861572	22.523745
258.178162	1529.150024	3682.222412	2005.638062	22.130611
258.551270	1530.032227	3768.455322	2013.798218	21.611910
258.924377	1529.370483	3840.132080	2018.650146	21.173956
259.297485	1525.290405	3899.569580	2028.905640	21.211288
259.670502	1529.149780	3942.906982	2036.293945	21.010571
260.043518	1533.891602	3992.750732	2046.990112	20.867340
260.416473	1530.362793	4040.167725	2054.599121	20.887533
260.789459	1527.606079	4078.542725	2059.230469	20.840361
261.162354	1530.803955	4110.521484	2066.177490	20.753185
261.535278	1529.149902	4134.229980	2066.177490	20.614630
261.908142	1529.370483	4159.372070	2064.633789	20.352205
262.280975	1526.613647	4174.479004	2069.485596	20.502251
262.653717	1530.583374	4190.909668	2074.337891	20.439392
263.026520	1530.914307	4200.062012	2077.204834	20.466852
263.399261	1525.952148	4207.781250	2076.102051	20.513981
263.771973	1526.834351	4219.911133	2076.102295	20.395555
264.144653	1523.084961	4213.735840	2079.630859	20.684433
264.517334	1525.290405	4186.388184	2078.197266	20.777399
264.889954	1525.952148	4137.316406	2069.485596	20.814157
265.262543	1526.393188	4074.020508	2057.906982	20.863089
265.635071	1529.480835	3996.830078	2049.085205	21.059216
266.007599	1528.047363	3930.997070	2040.042725	21.306953
266.380127	1524.408325	3887.770752	2034.419067	21.579880
266.752594	1526.503418	3869.796143	2034.198608	21.665888
267.125031	1525.952148	3869.355225	2034.308960	21.693102
267.497437	1520.879517	3888.873535	2038.278687	21.849682
267.869843	1518.674072	3911.148438	2037.175781	21.672195
268.242218	1521.430908	3946.104980	2040.042725	21.388929
268.614532	1521.872070	4017.010498	2049.857178	21.160553
268.986816	1519.004883	4098.060547	2060.002197	20.976566
269.359100	1521.871948	4188.152832	2073.676025	20.695648
269.731354	1522.092407	4275.819824	2091.650391	20.683165
270.103516	1523.084961	4346.615234	2102.126465	20.507713
270.475708	1518.784424	4407.816406	2109.735107	20.454971
270.847839	1522.092529	4464.496094	2118.998047	20.286324
271.219971	1526.944702	4510.920898	2123.298584	19.985210
271.592041	1529.921875	4535.180664	2125.062988	19.803324
271.964081	1532.237671	4553.485840	2121.975342	19.519670
272.336151	1532.237671	4574.547852	2124.511475	19.467897
272.708130	1531.686279	4593.956055	2129.915039	19.535469
273.080109	1530.804077	4614.908203	2133.223145	19.533033
273.452026	1530.252686	4644.680664	2134.987549	19.417206
273.823914	1533.560913	4678.535156	2138.406006	19.232117
274.195770	1535.435425	4714.483887	2142.816895	19.105764
274.567627	1536.979126	4748.447754	2146.235596	18.971272
274.939423	1537.420288	4784.065918	2149.984863	18.867615
275.311249	1538.853882	4807.002441	2152.520996	18.777210
275.682983	1536.979370	4827.954590	2157.152588	18.844664
276.054688	1534.443115	4832.806641	2160.129883	18.969612
276.426422	1536.648560	4815.052734	2156.380371	18.903460
276.798065	1537.530640	4785.389648	2151.308105	18.897911
277.169708	1537.199951	4757.159668	2145.904785	18.904114
277.541321	1539.515625	4739.075195	2142.816895	18.855761
277.912903	1539.074585	4743.375977	2140.170654	18.759037
278.284424	1539.736206	4756.277344	2147.337891	18.889910
278.655945	1535.656250	4777.670410	2150.425537	18.962572
279.027435	1538.523315	4811.523926	2156.821533	18.890869
279.398865	1537.971924	4872.173828	2166.305176	18.845087
279.770294	1538.412964	4936.683105	2180.971191	18.908392
280.141663	1538.082275	4996.009766	2186.925781	18.763943
280.513031	1541.500610	5055.887695	2194.975830	18.594286
280.884369	1538.523193	5092.829102	2200.709961	18.630550
281.255676	1540.177368	5132.637207	2209.421387	18.629129
281.626953	1538.412964	5166.601074	2214.383789	18.631086
281.998199	1539.736206	5202.770996	2223.205566	18.658556
282.369385	1540.508057	5250.519043	2234.784180	18.713587
282.740540	1542.603271	5308.743164	2240.959717	18.543030
283.111694	1540.397827	5362.334961	2250.773926	18.586807
283.482819	1541.059326	5430.263184	2259.816162	18.480822
283.853912	1542.382813	5511.203613	2274.702881	18.451830
284.224945	1538.743774	5583.652832	2293.780029	18.666334
284.595978	1542.272461	5653.455566	2308.115479	18.628288
284.966980	1541.941650	5715.318359	2321.127686	18.670397
285.337952	1537.861450	5756.670410	2332.485596	18.835272
285.708893	1539.405273	5777.953613	2341.858887	18.932274
286.079803	1540.949097	5798.574219	2346.270020	18.914793
286.450684	1543.154785	5811.917480	2348.695801	18.870598
286.821533	1537.861572	5818.423340	2355.642822	19.104532
287.192322	1536.097412	5819.305176	2359.281738	19.218874
287.563110	1538.082275	5831.985840	2364.465088	19.245491
287.933868	1538.854126	5849.850098	2379.131104	19.491482
288.304596	1538.523315	5884.034668	2387.732422	19.542213
288.675262	1538.743896	5930.018555	2405.265625	19.732807
289.045929	1537.641113	5962.328613	2416.403076	19.860430
289.416565	1536.869141	5990.999023	2428.422852	20.016338
289.787170	1538.302734	5998.938477	2435.039307	20.103336
290.157745	1535.545898	6001.916016	2439.670654	20.242943
290.528259	1536.317749	5993.204102	2450.036377	20.501278
290.898773	1539.736084	6004.672852	2457.755371	20.560635
291.269226	1537.751221	6002.908691	2462.827637	20.717667
291.639679	1538.192261	5995.741211	2469.554443	20.894043
292.010101	1540.397827	6016.803223	2483.007568	21.057293
292.380463	1537.199829	6050.877441	2500.430908	21.340271
292.750824	1539.625854	6085.503418	2515.096924	21.458366
293.121155	1537.640869	6131.597168	2527.006348	21.536242
293.491455	1534.884155	6201.399414	2541.782959	21.577103
293.861725	1532.458130	6279.141602	2562.734863	21.705191
294.231964	1532.458130	6366.808594	2584.348145	21.758661
294.602142	1535.766235	6463.296875	2609.490479	21.790310
294.972321	1533.009399	6543.686035	2629.890869	21.890884
295.342468	1527.716309	6605.217773	2646.873047	22.041485
295.712555	1525.731445	6647.011230	2658.120605	22.111448
296.082672	1529.370483	6671.602051	2666.942627	22.122150
296.452728	1529.811523	6675.351074	2670.250732	22.163647
296.822693	1528.378052	6675.020020	2673.228271	22.244606
297.192657	1527.495850	6668.844727	2675.543945	22.329708
297.562622	1525.510986	6691.009766	2681.167480	22.372601
297.932556	1531.355469	6707.330566	2692.525635	22.433844
298.302460	1530.693848	6710.307129	2690.430664	22.390413
298.672333	1529.260376	6708.653320	2692.195068	22.453108
299.042145	1529.260376	6706.778809	2696.495605	22.544298
299.411957	1527.716553	6705.897461	2695.282715	22.547806
299.781677	1527.716553	6663.441406	2685.358154	22.540960
300.151428	1527.496094	6619.552734	2671.133057	22.459234
300.521149	1524.629028	6556.917969	2660.657227	22.574780
300.890839	1525.842041	6491.747559	2653.158691	22.701130
301.260468	1526.503662	6415.769531	2647.755127	22.932922
301.630096	1525.621338	6328.434570	2634.081543	23.079393
301.999695	1525.290527	6236.907715	2619.966797	23.233557
302.369232	1523.526245	6126.966309	2600.117676	23.386673
302.738739	1525.952148	6024.302246	2584.127930	23.523642
303.108246	1529.922119	5926.270020	2567.256104	23.595358
303.477692	1530.363159	5852.166504	2550.273926	23.599195
303.847137	1526.724121	5775.858398	2540.018799	23.847086
304.216553	1530.363037	5724.691406	2527.668213	23.777472
304.585876	1531.465820	5688.742188	2523.698242	23.867367
304.955231	1535.215088	5666.687988	2519.177002	23.816252
305.324493	1534.443115	5638.126953	2517.302246	23.950655
305.693787	1530.252686	5612.212891	2516.861328	24.169971
306.063049	1530.032227	5607.581055	2525.242188	24.407064
306.432251	1528.708740	5606.588379	2528.770996	24.524075
306.801422	1529.260132	5598.097656	2527.999268	24.546057
307.170593	1532.568481	5595.450684	2533.071533	24.625450
307.539673	1528.819092	5608.573730	2535.497559	24.674976
307.908783	1531.575928	5615.080078	2545.863281	24.838652
308.277832	1531.355347	5644.522949	2552.700195	24.831102
308.646851	1534.773926	5681.133301	2555.016113	24.605734
309.015839	1536.207520	5715.649414	2556.449707	24.410967
309.384796	1538.082153	5746.415039	2561.301514	24.314125
309.753723	1535.766357	5771.998047	2569.020508	24.390881
310.122620	1533.891724	5793.611816	2571.556641	24.359932
310.491486	1532.899292	5812.357422	2578.503662	24.433104
310.860352	1530.914307	5821.179199	2583.024902	24.523211
311.229126	1534.332886	5826.031250	2586.994873	24.527866
311.597931	1529.701416	5843.123535	2595.155029	24.700890
311.966675	1526.613892	5869.699219	2604.858887	24.826704
312.335388	1526.834351	5896.274414	2613.129395	24.861197
312.704071	1522.974854	5922.739746	2627.795654	25.110907
313.072723	1524.959717	5931.230957	2629.339600	25.063818
313.441345	1523.526245	5931.341309	2625.039063	24.989996
313.809875	1523.195313	5911.823242	2621.179688	25.018852
314.178436	1523.195190	5885.688477	2615.886475	25.047403
314.546967	1521.982178	5851.614258	2610.262695	25.135637
314.915466	1519.446045	5811.254883	2602.102539	25.226112
315.283936	1523.967163	5773.100586	2596.478516	25.240709
315.652374	1523.195557	5733.402344	2589.421143	25.324778
316.020752	1523.416016	5692.822266	2583.576660	25.427137
316.389130	1525.842041	5654.116699	2577.511719	25.474800
316.757416	1525.621460	5628.202637	2572.659668	25.521450
