Jaz Data File
++++++++++++++++++++++++++++++++++++
Date: Fri Jun 21 02:56:31 2019
User: jaz
Dark Spectrum Present: Yes
Reference Spectrum Present: Yes
Processed Spectrum Present: Yes
Spectrometers: JAZA3541
Integration Time (usec): 119000 (JAZA3541)
Spectra Averaged: 1 (JAZA3541)
Boxcar Smoothing: 10 (JAZA3541)
Correct for Electrical Dark: No (JAZA3541)
Strobe/Lamp Enabled: Yes (JAZA3541)
Correct for Detector Non-linearity: No (JAZA3541)
Correct for Stray Light: No (JAZA3541)
Number of Pixels in Processed Spectrum: 2048
>>>>>Begin Processed Spectral Data<<<<<
W	D	R	S	P
190.543274	0.000000	0.000000	0.000000	0.000000
190.921555	0.000000	0.000000	0.000000	0.000000
191.299805	1558.482544	1405.644653	1669.637329	-72.727242
191.678024	1533.009521	1440.380615	1646.479980	-122.500053
192.056229	1539.956665	1535.325317	1648.795776	-2350.052734
192.434387	1519.115234	1551.535278	1627.954224	335.715118
192.812531	1604.796997	1597.849854	1695.110229	-1300.005249
193.190659	1556.166748	1542.272461	1704.373169	-1066.671631
193.568741	1623.322754	1530.693848	1704.373169	-87.500130
193.946793	0.000000	0.000000	0.000000	0.000000
194.324829	1410.165894	1403.770142	1525.511108	-1803.466064
194.702835	1483.938232	1477.322021	1608.436035	-1881.708496
195.080811	1555.725708	1551.645752	1689.927490	-3289.294678
195.458755	1552.307251	1560.467407	1690.258179	1690.542725
195.836685	1553.520386	1565.540039	1692.904785	1159.637451
196.214569	1554.953857	1568.627808	1696.984741	1038.696777
196.592422	1551.425171	1571.164063	1704.152344	773.737305
196.970261	1549.219727	1570.833130	1703.490723	713.774658
197.348068	1548.999146	1571.274170	1701.616089	685.148254
197.725861	1545.690796	1573.810425	1700.513428	550.585632
198.103622	1539.625854	1573.589844	1700.292969	473.051361
198.481323	1540.287598	1569.399536	1701.726807	554.546387
198.859039	1539.846436	1568.958374	1702.829224	559.848633
199.236694	1536.758789	1568.296631	1698.307983	512.239197
199.614334	1539.295166	1566.201660	1695.992554	582.377563
199.991959	1540.728760	1571.604858	1694.338379	497.503326
200.369553	1537.751465	1570.502075	1698.197876	489.903564
200.747101	1536.759033	1571.935669	1701.175415	467.402222
201.124619	1535.215210	1570.502197	1702.167725	473.127716
201.502136	1531.796631	1571.274048	1702.498657	432.404236
201.879623	1529.922119	1568.517334	1702.388184	446.858673
202.257065	1525.621216	1569.730225	1698.528687	392.000366
202.634476	1525.621216	1573.589600	1696.543701	356.323212
203.011871	1524.187744	1573.258911	1696.874390	351.910614
203.389221	1524.408203	1571.715088	1695.882080	362.471283
203.766571	1523.415649	1570.722656	1694.228027	361.072052
204.143875	1523.305542	1567.635010	1695.440796	388.308868
204.521164	1526.613770	1564.878296	1691.691772	431.412628
204.898392	1524.408203	1563.444702	1694.007568	434.463562
205.275620	1523.856812	1563.665405	1698.087646	437.671417
205.652817	1524.297852	1562.783081	1698.749268	453.294464
206.029984	1529.370483	1566.422241	1699.521240	459.224518
206.407135	1528.378052	1568.848267	1696.543701	415.529419
206.784225	1530.473389	1569.950928	1696.102661	419.553192
207.161301	1530.252808	1570.281616	1702.167725	429.477966
207.538376	1528.929443	1571.274170	1705.365479	416.665894
207.915405	1529.260376	1568.517456	1706.909424	452.527405
208.292404	1529.480835	1568.737671	1701.836914	439.047302
208.669373	1525.952148	1570.833008	1702.498291	393.366211
209.046310	1524.628784	1571.053589	1700.403320	378.622040
209.423218	1528.267822	1569.509644	1699.521240	415.242126
209.800095	1530.032227	1570.612549	1699.300781	417.119781
210.176956	1530.032227	1570.833130	1699.300781	414.864716
210.553787	1531.686279	1566.201660	1697.536255	480.510345
210.930603	1535.435425	1566.091553	1695.110352	520.858093
211.307358	1536.648438	1565.760620	1693.456299	538.633118
211.684113	1538.412842	1570.391968	1693.015015	483.447144
212.060837	1534.773804	1573.920776	1687.942505	391.265778
212.437531	1533.340210	1574.802856	1684.524170	364.626892
212.814178	1532.458130	1578.772705	1682.208374	323.332855
213.190826	1532.788940	1580.426758	1677.577026	303.935181
213.567413	1530.914307	1580.095947	1677.246338	297.533844
213.943985	1528.267822	1576.015869	1674.268921	305.773956
214.320541	1528.488281	1577.669800	1674.930664	297.758972
214.697052	1527.716431	1577.228760	1679.231201	306.014221
215.073563	1529.591064	1581.198486	1677.466919	286.539886
215.449997	1529.921875	1582.852661	1674.599854	273.334259
215.826431	1528.708862	1588.586670	1673.607178	241.990021
216.202850	1529.370483	1590.792236	1674.709961	236.625412
216.579224	1533.119751	1588.807495	1671.953125	249.306870
216.955582	1533.560791	1588.586914	1673.165894	253.706955
217.331894	1531.135010	1586.932861	1674.268555	256.521606
217.708191	1532.017090	1588.035400	1673.497070	252.560242
218.084442	1537.420532	1591.674438	1674.048218	251.830139
218.460678	1534.443115	1598.180420	1676.584473	223.011246
218.836899	1532.678711	1603.694214	1678.018066	204.658630
219.213074	1532.127563	1606.892090	1680.554321	198.525650
219.589233	1531.024658	1605.348389	1681.546509	202.521927
219.965347	1533.891846	1609.869385	1684.083008	197.678375
220.341431	1535.987061	1615.713867	1688.383545	191.148361
220.717499	1535.435669	1614.721558	1690.699463	195.827774
221.093552	1534.002075	1619.242554	1695.220581	189.133743
221.469543	1535.104858	1625.197510	1692.573975	174.785751
221.845535	1536.207642	1630.380249	1694.669067	168.266998
222.221466	1537.310303	1634.350098	1696.654053	164.204544
222.597397	1535.435547	1642.069214	1692.904785	147.673096
222.973297	1537.420532	1647.362183	1690.920044	139.619064
223.349167	1536.979492	1655.853271	1690.809570	129.406235
223.725006	1537.530640	1662.359375	1692.132813	123.851433
224.100800	1538.082153	1671.952881	1693.345825	115.980301
224.476578	1538.854004	1682.097900	1695.110352	109.084122
224.852325	1537.971680	1701.726563	1695.220459	96.026924
225.228058	1541.279907	1724.332397	1697.315674	85.240997
225.603760	1540.838867	1750.246460	1697.756714	74.934174
225.979416	1536.317749	1779.248169	1702.388428	68.361420
226.355057	1535.325195	1813.322388	1700.844482	59.539913
226.730652	1533.671143	1852.028076	1701.506104	52.719116
227.106232	1534.773926	1886.543335	1707.019775	48.965557
227.481796	1531.575928	1920.286865	1711.651001	46.326218
227.857315	1528.378052	1946.972900	1714.518188	44.467854
228.232788	1528.819214	1971.673950	1712.312744	41.434250
228.608246	1531.465698	1999.903687	1716.282349	39.453812
228.983704	1534.112305	2022.950684	1720.031860	38.032928
229.359100	1531.575928	2040.263428	1723.009155	37.632774
229.734482	1528.378052	2061.546143	1722.678345	36.442596
230.109833	1529.039795	2075.881592	1723.340088	35.531353
230.485153	1528.488403	2087.349609	1728.412598	35.773495
230.860443	1521.541260	2101.575195	1732.051514	36.292747
231.235703	1520.879517	2121.534668	1733.815796	35.450672
231.610931	1519.225464	2137.523926	1735.359741	34.956303
231.986145	1517.240479	2152.079834	1736.793335	34.584003
232.361313	1516.468506	2165.532959	1739.219360	34.318756
232.736465	1519.115112	2169.833984	1742.858276	34.383999
233.111572	1517.571289	2172.921387	1742.747925	34.359749
233.486664	1518.894653	2171.708252	1744.843140	34.611485
233.861725	1517.350586	2169.944092	1742.086548	34.437359
234.236755	1520.107422	2156.931885	1744.622559	35.255421
234.611771	1522.313110	2138.516357	1745.835571	36.274147
234.986740	1523.415771	2132.671875	1744.622559	36.307686
235.361679	1526.062256	2128.922607	1743.850586	36.125835
235.736588	1526.393188	2124.952881	1742.196411	36.053753
236.111496	1527.936890	2122.196045	1743.630005	36.296135
236.486343	1528.819092	2122.857666	1738.226807	35.251534
236.861160	1527.716309	2128.371582	1735.249390	34.551113
237.235962	1529.370483	2138.626465	1737.123901	34.099529
237.610733	1532.016968	2152.962158	1741.865723	33.795052
237.985474	1532.016968	2177.111572	1745.945923	33.162415
238.360199	1533.009521	2207.988037	1748.041260	31.857569
238.734879	1534.994385	2240.628662	1754.106079	31.051737
239.109543	1532.347900	2281.539551	1761.604370	30.600510
239.484177	1533.450562	2334.360352	1769.103027	29.423098
239.858749	1535.325195	2397.105469	1778.696777	28.240561
240.233322	1530.804199	2464.923096	1786.526245	27.375750
240.607864	1528.709106	2528.660889	1794.355469	26.565918
240.982391	1529.370728	2583.025391	1804.390259	26.101486
241.356857	1527.826904	2627.685547	1813.432617	25.967493
241.731308	1533.340454	2665.288574	1823.467407	25.630764
242.105728	1529.150024	2699.583252	1830.635254	25.758430
242.480118	1528.708984	2736.414307	1835.818115	25.429144
242.854492	1529.480957	2770.378418	1840.780273	25.086626
243.228836	1527.606323	2818.898193	1846.293945	24.679750
243.603134	1531.245361	2883.187256	1857.210693	24.110899
243.977402	1529.150146	2971.956787	1871.436035	23.723616
244.351654	1526.724121	3079.692871	1888.638550	23.304682
244.725861	1527.495972	3195.809814	1902.312256	22.466772
245.100067	1529.260376	3309.391113	1919.845581	21.941378
245.474213	1530.693970	3406.872070	1932.306396	21.405880
245.848343	1529.150146	3476.453857	1941.238525	21.161999
246.222443	1528.378174	3532.362061	1951.493652	21.113716
246.596512	1530.252808	3565.884766	1955.243164	20.877563
246.970566	1530.804077	3581.543457	1955.353394	20.702257
247.344574	1531.134888	3573.714355	1954.692017	20.736383
247.718567	1528.157471	3552.431641	1951.052856	20.891211
248.092529	1533.561035	3529.936035	1949.068115	20.813078
248.466431	1533.891724	3510.307617	1947.855103	20.945156
248.840332	1534.002197	3506.668945	1946.311157	20.901096
249.214203	1533.891846	3516.923828	1943.554443	20.658396
249.588043	1529.811768	3538.868408	1943.885254	20.610344
249.961838	1525.952148	3566.656982	1944.987915	20.533875
250.335617	1524.629028	3592.460938	1949.068115	20.525801
250.709381	1522.423584	3603.377930	1948.847290	20.491737
251.083084	1521.320801	3591.468262	1948.516357	20.635996
251.456787	1521.982422	3561.474365	1942.120483	20.600134
251.830460	1521.762085	3509.425293	1938.040527	20.943108
252.204071	1522.203125	3429.367188	1928.557251	21.306721
252.577667	1521.761963	3337.069092	1920.507568	21.965738
252.951248	1521.541260	3250.725830	1910.031616	22.466679
253.324799	1517.020142	3177.835449	1899.776245	23.046278
253.698303	1516.248169	3130.969482	1894.483032	23.424158
254.071793	1518.233032	3092.374268	1891.616089	23.719793
254.445236	1520.769287	3078.479736	1888.969482	23.637268
254.818665	1521.541260	3072.855957	1893.821289	23.997711
255.192062	1521.320801	3089.396729	1899.776001	24.135004
255.565430	1525.511108	3120.272949	1904.958740	23.793373
255.938782	1522.092651	3155.891113	1910.472412	23.771584
256.312103	1523.636475	3214.445801	1919.735352	23.426584
256.685364	1522.202881	3288.438721	1930.762695	23.131668
257.058594	1520.107666	3374.341064	1945.869995	22.961636
257.431793	1523.195435	3472.593750	1962.631470	22.542137
257.804993	1527.716431	3583.969238	1981.047241	22.046452
258.178162	1529.150024	3682.222412	1993.397705	21.562103
258.551270	1530.032227	3768.455322	2006.078857	21.267054
258.924377	1529.370483	3840.132080	2017.988525	21.145323
259.297485	1525.290405	3899.569580	2026.699585	21.118374
259.670502	1529.149780	3942.906982	2029.787354	20.741007
260.043518	1533.891602	3992.750732	2038.829834	20.535467
260.416473	1530.362793	4040.167725	2045.556396	20.527237
260.789459	1527.606079	4078.542725	2049.746582	20.468580
261.162354	1530.803955	4110.521484	2057.245117	20.406931
261.535278	1529.149902	4134.229980	2059.340332	20.352175
261.908142	1529.370483	4159.372070	2060.774170	20.205452
262.280975	1526.613647	4174.479004	2064.302979	20.306522
262.653717	1530.583374	4190.909668	2059.671631	19.888098
263.026520	1530.914307	4200.062012	2055.922363	19.669502
263.399261	1525.952148	4207.781250	2059.120117	19.880758
263.771973	1526.834351	4219.911133	2059.450928	19.777252
264.144653	1523.084961	4213.735840	2056.914551	19.840166
264.517334	1525.290405	4186.388184	2051.731689	19.782862
264.889954	1525.952148	4137.316406	2043.902100	19.834457
265.262543	1526.393188	4074.020508	2032.213379	19.854559
265.635071	1529.480835	3996.830078	2018.429443	19.816759
266.007599	1528.047363	3930.997070	2008.725464	20.003670
266.380127	1524.408325	3887.770752	2004.535156	20.315414
266.752594	1526.503418	3869.796143	2000.675537	20.235292
267.125031	1525.952148	3869.355225	2004.645264	20.427263
267.497437	1520.879517	3888.873535	2007.843140	20.564394
267.869843	1518.674072	3911.148438	2013.908325	20.699669
268.242218	1521.430908	3946.104980	2019.311523	20.533918
268.614532	1521.872070	4017.010498	2029.456787	20.342949
268.986816	1519.004883	4098.060547	2039.712036	20.189838
269.359100	1521.871948	4188.152832	2051.511230	19.864347
269.731354	1522.092407	4275.819824	2061.987061	19.605957
270.103516	1523.084961	4346.615234	2070.257568	19.379025
270.475708	1518.784424	4407.816406	2080.954102	19.458755
270.847839	1522.092529	4464.496094	2086.908936	19.195749
271.219971	1526.944702	4510.920898	2089.444824	18.850691
271.592041	1529.921875	4535.180664	2092.312012	18.713535
271.964081	1532.237671	4553.485840	2087.129395	18.366308
272.336151	1532.237671	4574.547852	2085.696045	18.192043
272.708130	1531.686279	4593.956055	2086.908936	18.131083
273.080109	1530.804077	4614.908203	2087.019043	18.034897
273.452026	1530.252686	4644.680664	2094.848389	18.128391
273.823914	1533.560913	4678.535156	2101.244141	18.050489
274.195770	1535.435425	4714.483887	2105.544678	17.933331
274.567627	1536.979126	4748.447754	2110.837646	17.869036
274.939423	1537.420288	4784.065918	2109.845459	17.631281
275.311249	1538.853882	4807.002441	2113.153564	17.572632
275.682983	1536.979370	4827.954590	2110.727539	17.433987
276.054688	1534.443115	4832.806641	2108.742676	17.411652
276.426422	1536.648560	4815.052734	2106.096191	17.369659
276.798065	1537.530640	4785.389648	2101.023926	17.349686
277.169708	1537.199951	4757.159668	2098.928467	17.445204
277.541321	1539.515625	4739.075195	2091.871094	17.263485
277.912903	1539.074585	4743.375977	2091.099121	17.227610
278.284424	1539.736206	4756.277344	2094.407471	17.244339
278.655945	1535.656250	4777.670410	2101.464844	17.452379
279.027435	1538.523315	4811.523926	2107.860596	17.394964
279.398865	1537.971924	4872.173828	2117.895264	17.393167
279.770294	1538.412964	4936.683105	2135.097900	17.558491
280.141663	1538.082275	4996.009766	2149.874268	17.692448
280.513031	1541.500610	5055.887695	2164.871338	17.737679
280.884369	1538.523193	5092.829102	2173.913574	17.876637
281.255676	1540.177368	5132.637207	2176.780762	17.720543
281.626953	1538.412964	5166.601074	2186.705078	17.868206
281.998199	1539.736206	5202.770996	2193.211426	17.839722
282.369385	1540.508057	5250.519043	2201.261475	17.810013
282.740540	1542.603271	5308.743164	2214.824951	17.849089
283.111694	1540.397827	5362.334961	2225.300781	17.920309
283.482819	1541.059326	5430.263184	2236.438232	17.879725
283.853912	1542.382813	5511.203613	2250.222168	17.835005
284.224945	1538.743774	5583.652832	2259.485107	17.818480
284.595978	1542.272461	5653.455566	2271.946289	17.748512
284.966980	1541.941650	5715.318359	2284.296631	17.787872
285.337952	1537.861450	5756.670410	2295.985840	17.970104
285.708893	1539.405273	5777.953613	2302.932861	18.013893
286.079803	1540.949097	5798.574219	2310.652100	18.078224
286.450684	1543.154785	5811.917480	2315.062744	18.082710
286.821533	1537.861572	5818.423340	2321.127686	18.298210
287.192322	1536.097412	5819.305176	2328.626221	18.503159
287.563110	1538.082275	5831.985840	2336.234863	18.588043
287.933868	1538.854126	5849.850098	2343.843750	18.672937
288.304596	1538.523315	5884.034668	2349.357422	18.659119
288.675262	1538.743896	5930.018555	2363.362061	18.778561
289.045929	1537.641113	5962.328613	2373.507080	18.890961
289.416565	1536.869141	5990.999023	2380.895508	18.949299
289.787170	1538.302734	5998.938477	2390.489502	19.104603
290.157745	1535.545898	6001.916016	2395.672363	19.257841
290.528259	1536.317749	5993.204102	2400.303711	19.385416
290.898773	1539.736084	6004.672852	2406.368652	19.409740
291.269226	1537.751221	6002.908691	2410.338623	19.542143
291.639679	1538.192261	5995.741211	2417.726563	19.731344
292.010101	1540.397827	6016.803223	2430.187256	19.877321
292.380463	1537.199829	6050.877441	2442.427734	20.055218
292.750824	1539.625854	6085.503418	2456.101563	20.160589
293.121155	1537.640869	6131.597168	2471.649658	20.331253
293.491455	1534.884155	6201.399414	2491.940186	20.509010
293.861725	1532.458130	6279.141602	2512.340332	20.643513
294.231964	1532.458130	6366.808594	2534.725586	20.732204
294.602142	1535.766235	6463.296875	2554.795410	20.680321
294.972321	1533.009399	6543.686035	2570.123291	20.698080
295.342468	1527.716309	6605.217773	2585.671875	20.836145
295.712555	1525.731445	6647.011230	2602.653564	21.028379
296.082672	1529.370483	6671.602051	2609.931396	21.013464
296.452728	1529.811523	6675.351074	2614.121826	21.072821
296.822693	1528.378052	6675.020020	2618.643311	21.184011
297.192657	1527.495850	6668.844727	2620.076660	21.250860
297.562622	1525.510986	6691.009766	2623.053711	21.247564
297.932556	1531.355469	6707.330566	2630.111328	21.227997
298.302460	1530.693848	6710.307129	2633.639893	21.293985
298.672333	1529.260376	6708.653320	2634.081055	21.331083
299.042145	1529.260376	6706.778809	2639.925293	21.451683
299.411957	1527.716553	6705.897461	2642.682373	21.532000
299.781677	1527.716553	6663.441406	2640.036133	21.658474
300.151428	1527.496094	6619.552734	2635.404541	21.757584
300.521149	1524.629028	6556.917969	2623.495117	21.836308
300.890839	1525.842041	6491.747559	2613.239746	21.897270
301.260468	1526.503662	6415.769531	2601.881592	21.994673
301.630096	1525.621338	6328.434570	2582.252930	22.000263
301.999695	1525.290527	6236.907715	2566.925049	22.107792
302.369232	1523.526245	6126.966309	2547.627441	22.246433
302.738739	1525.952148	6024.302246	2528.881104	22.295485
303.108246	1529.922119	5926.270020	2512.229980	22.343725
303.477692	1530.363159	5852.166504	2491.167725	22.231567
303.847137	1526.724121	5775.858398	2483.779541	22.523539
304.216553	1530.363037	5724.691406	2476.612061	22.560205
304.585876	1531.465820	5688.742188	2472.752686	22.641912
304.955231	1535.215088	5666.687988	2464.592529	22.495064
305.324493	1534.443115	5638.126953	2463.158936	22.631273
305.693787	1530.252686	5612.212891	2460.732910	22.794937
306.063049	1530.032227	5607.581055	2464.482178	22.916952
306.432251	1528.708740	5606.588379	2470.326416	23.090864
306.801422	1529.260132	5598.097656	2472.090820	23.171991
307.170593	1532.568481	5595.450684	2470.436523	23.083811
307.539673	1528.819092	5608.573730	2474.626953	23.182959
307.908783	1531.575928	5615.080078	2476.281250	23.134672
308.277832	1531.355347	5644.522949	2488.631592	23.273457
308.646851	1534.773926	5681.133301	2497.343262	23.214808
309.015839	1536.207520	5715.649414	2499.879639	23.057436
309.384796	1538.082153	5746.415039	2511.458252	23.129730
309.753723	1535.766357	5771.998047	2514.104492	23.094540
310.122620	1533.891724	5793.611816	2520.279785	23.156170
310.491486	1532.899292	5812.357422	2529.873535	23.296741
310.860352	1530.914307	5821.179199	2534.174072	23.384565
311.229126	1534.332886	5826.031250	2537.372070	23.371614
311.597931	1529.701416	5843.123535	2540.570068	23.435423
311.966675	1526.613892	5869.699219	2545.532471	23.460707
312.335388	1526.834351	5896.274414	2550.494873	23.427729
312.704071	1522.974854	5922.739746	2564.388916	23.669767
313.072723	1524.959717	5931.230957	2567.807373	23.667349
313.441345	1523.526245	5931.341309	2568.579590	23.709103
313.809875	1523.195313	5911.823242	2561.522217	23.659489
314.178436	1523.195190	5885.688477	2553.913574	23.626820
314.546967	1521.982178	5851.614258	2546.524902	23.663507
314.915466	1519.446045	5811.254883	2545.091309	23.897739
315.283936	1523.967163	5773.100586	2540.900635	23.932728
315.652374	1523.195557	5733.402344	2534.725342	24.025654
316.020752	1523.416016	5692.822266	2522.375244	23.959269
316.389130	1525.842041	5654.116699	2515.427979	23.970934
316.757416	1525.621460	5628.202637	2515.979248	24.139872
