Jaz Data File
++++++++++++++++++++++++++++++++++++
Date: Fri Jun 21 03:11:15 2019
User: jaz
Dark Spectrum Present: Yes
Reference Spectrum Present: Yes
Processed Spectrum Present: Yes
Spectrometers: JAZA3541
Integration Time (usec): 119000 (JAZA3541)
Spectra Averaged: 1 (JAZA3541)
Boxcar Smoothing: 10 (JAZA3541)
Correct for Electrical Dark: No (JAZA3541)
Strobe/Lamp Enabled: Yes (JAZA3541)
Correct for Detector Non-linearity: No (JAZA3541)
Correct for Stray Light: No (JAZA3541)
Number of Pixels in Processed Spectrum: 2048
>>>>>Begin Processed Spectral Data<<<<<
W	D	R	S	P
190.543274	0.000000	0.000000	0.000000	0.000000
190.921555	0.000000	0.000000	0.000000	0.000000
191.299805	1558.482544	1405.644653	1794.686401	-154.545349
191.678024	1533.009521	1440.380615	1718.267456	-200.000137
192.056229	1539.956665	1535.325317	1748.371948	-4500.100098
192.434387	1519.115234	1551.535278	1824.790771	942.859741
192.812531	1604.796997	1597.849854	1725.214600	-1733.339722
193.190659	1556.166748	1542.272461	1857.210938	-2166.676025
193.568741	1623.322754	1530.693848	1792.370605	-182.500107
193.946793	0.000000	0.000000	0.000000	0.000000
194.324829	1410.165894	1403.770142	1599.283325	-2956.922607
194.702835	1483.938232	1477.322021	1683.090454	-3010.064697
195.080811	1555.725708	1551.645752	1764.581787	-5119.076660
195.458755	1552.307251	1560.467407	1763.148193	2583.785645
195.836685	1553.520386	1565.540039	1768.331055	1787.161987
196.214569	1554.953857	1568.627808	1768.441406	1561.271973
196.592422	1551.425171	1571.164063	1768.441406	1099.434814
196.970261	1549.219727	1570.833130	1769.544312	1019.388672
197.348068	1548.999146	1571.274170	1764.251099	966.337646
197.725861	1545.690796	1573.810425	1763.038086	772.937988
198.103622	1539.625854	1573.589844	1759.288818	646.752563
198.481323	1540.287598	1569.399536	1763.810059	767.803406
198.859039	1539.846436	1568.958374	1767.118164	780.682251
199.236694	1536.758789	1568.296631	1770.426392	740.911865
199.614334	1539.295166	1566.201660	1769.654541	856.147888
199.991959	1540.728760	1571.604858	1768.661987	738.218994
200.369553	1537.751465	1570.502075	1770.426392	710.444580
200.747101	1536.759033	1571.935669	1770.977905	665.836487
201.124619	1535.215210	1570.502197	1769.985474	665.316833
201.502136	1531.796631	1571.274048	1771.749756	607.823792
201.879623	1529.922119	1568.517334	1768.992798	619.430908
202.257065	1525.621216	1569.730225	1769.433838	552.750183
202.634476	1525.621216	1573.589600	1767.558960	504.369171
203.011871	1524.187744	1573.258911	1766.456421	493.708801
203.389221	1524.408203	1571.715088	1763.589600	505.595337
203.766571	1523.415649	1570.722656	1759.288818	498.600922
204.143875	1523.305542	1567.635010	1756.862915	526.867065
204.521164	1526.613770	1564.878296	1755.980835	599.424805
204.898392	1524.408203	1563.444702	1754.767700	590.113098
205.275620	1523.856812	1563.665405	1754.767700	580.052856
205.652817	1524.297852	1562.783081	1752.562256	593.122131
206.029984	1529.370483	1566.422241	1752.010986	600.890503
206.407135	1528.378052	1568.848267	1747.600098	541.687378
206.784225	1530.473389	1569.950928	1740.101318	531.005554
207.161301	1530.252808	1570.281616	1734.588013	510.470367
207.538376	1528.929443	1571.274170	1735.249634	487.239410
207.915405	1529.260376	1568.517456	1735.139282	524.437622
208.292404	1529.480835	1568.737671	1735.800781	525.564392
208.669373	1525.952148	1570.833008	1731.720825	458.477570
209.046310	1524.628784	1571.053589	1729.294800	440.854889
209.423218	1528.267822	1569.509644	1730.397705	490.109009
209.800095	1530.032227	1570.612549	1735.359985	505.978638
210.176956	1530.032227	1570.833130	1735.139282	502.702240
210.553787	1531.686279	1566.201660	1738.226807	598.401428
210.930603	1535.435425	1566.091553	1744.071045	680.567444
211.307358	1536.648438	1565.760620	1745.504883	717.419373
211.684113	1538.412842	1570.391968	1746.497070	650.687683
212.060837	1534.773804	1573.920776	1753.775269	559.433960
212.437531	1533.340210	1574.802856	1753.665039	531.381470
212.814178	1532.458130	1578.772705	1756.532349	483.809296
213.190826	1532.788940	1580.426758	1757.193848	471.064636
213.567413	1530.914307	1580.095947	1756.973267	459.640961
213.943985	1528.267822	1576.015869	1759.509644	484.295868
214.320541	1528.488281	1577.669800	1761.163696	473.095215
214.697052	1527.716431	1577.228760	1767.448975	484.187561
215.073563	1529.591064	1581.198486	1771.749634	469.232056
215.449997	1529.921875	1582.852661	1772.301025	457.917145
215.826431	1528.708862	1588.586670	1774.175781	409.946411
216.202850	1529.370483	1590.792236	1769.875244	391.562836
216.579224	1533.119751	1588.807495	1770.205933	425.742126
216.955582	1533.560791	1588.586914	1775.278442	439.277985
217.331894	1531.135010	1586.932861	1775.278442	437.549866
217.708191	1532.017090	1588.035400	1771.198486	426.970032
218.084442	1537.420532	1591.674438	1773.514160	435.164307
218.460678	1534.443115	1598.180420	1773.293701	374.742218
218.836899	1532.678711	1603.694214	1772.521729	337.733337
219.213074	1532.127563	1606.892090	1776.050415	326.254791
219.589233	1531.024658	1605.348389	1777.704590	331.899292
219.965347	1533.891846	1609.869385	1772.852295	314.514587
220.341431	1535.987061	1615.713867	1771.308350	295.159546
220.717499	1535.435669	1614.721558	1772.631714	299.165527
221.093552	1534.002075	1619.242554	1773.513794	280.983551
221.469543	1535.104858	1625.197510	1776.270630	267.686401
221.845535	1536.207642	1630.380249	1770.977661	249.297562
222.221466	1537.310303	1634.350098	1772.301025	242.159134
222.597397	1535.435547	1642.069214	1772.301147	222.130219
222.973297	1537.420532	1647.362183	1768.110718	209.829651
223.349167	1536.979492	1655.853271	1770.205688	196.196503
223.725006	1537.530640	1662.359375	1770.426514	186.572327
224.100800	1538.082153	1671.952881	1775.829590	177.594788
224.476578	1538.854004	1682.097900	1779.689331	168.129562
224.852325	1537.971680	1701.726563	1778.917236	147.137939
225.228058	1541.279907	1724.332397	1781.563965	131.265106
225.603760	1540.838867	1750.246460	1786.636475	117.377602
225.979416	1536.317749	1779.248169	1792.040039	105.265656
226.355057	1535.325195	1813.322388	1793.032349	92.701347
226.730652	1533.671143	1852.028076	1797.222656	82.784912
227.106232	1534.773926	1886.543335	1801.633789	75.862160
227.481796	1531.575928	1920.286865	1803.618652	69.985870
227.857315	1528.378052	1946.972900	1804.280151	65.911491
228.232788	1528.819214	1971.673950	1806.816162	62.773846
228.608246	1531.465698	1999.903687	1811.116943	59.698669
228.983704	1534.112305	2022.950684	1814.976563	57.455444
229.359100	1531.575928	2040.263428	1814.425171	55.603733
229.734482	1528.378052	2061.546143	1820.159180	54.725918
230.109833	1529.039795	2075.881592	1819.608032	53.135704
230.485153	1528.488403	2087.349609	1821.372437	52.407295
230.860443	1521.541260	2101.575195	1828.870850	52.984760
231.235703	1520.879517	2121.534668	1828.540161	51.220844
231.610931	1519.225464	2137.523926	1830.194214	50.294277
231.986145	1517.240479	2152.079834	1830.524902	49.348614
232.361313	1516.468506	2165.532959	1831.958374	48.606861
232.736465	1519.115112	2169.833984	1832.068848	48.093540
233.111572	1517.571289	2172.921387	1833.833130	48.258457
233.486664	1518.894653	2171.708252	1835.487183	48.496620
233.861725	1517.350586	2169.944092	1830.745361	48.022968
234.236755	1520.107422	2156.931885	1833.281616	49.177475
234.611771	1522.313110	2138.516357	1830.304443	49.982101
234.986740	1523.415771	2132.671875	1825.562744	49.592770
235.361679	1526.062256	2128.922607	1828.981201	50.246952
235.736588	1526.393188	2124.952881	1833.502197	51.307999
236.111496	1527.936890	2122.196045	1832.509888	51.252556
236.486343	1528.819092	2122.857666	1831.406982	50.937416
236.861160	1527.716309	2128.371582	1830.524902	50.413040
237.235962	1529.370483	2138.626465	1833.281860	49.882378
237.610733	1532.016968	2152.962158	1837.031006	49.120926
237.985474	1532.016968	2177.111572	1842.434570	48.119701
238.360199	1533.009521	2207.988037	1846.404175	46.430317
238.734879	1534.994385	2240.628662	1849.602173	44.585106
239.109543	1532.347900	2281.539551	1856.218506	43.229340
239.484177	1533.450562	2334.360352	1866.253540	41.553116
239.858749	1535.325195	2397.105469	1880.478638	40.051212
240.233322	1530.804199	2464.923096	1893.159790	38.791164
240.607864	1528.709106	2528.660889	1905.951294	37.726036
240.982391	1529.370728	2583.025391	1913.449829	36.452087
241.356857	1527.826904	2627.685547	1921.830688	35.823128
241.731308	1533.340454	2665.288574	1932.968018	35.304405
242.105728	1529.150024	2699.583252	1937.930298	34.925552
242.480118	1528.708984	2736.414307	1948.075317	34.724228
242.854492	1529.480957	2770.378418	1955.684204	34.346371
243.228836	1527.606323	2818.898193	1964.947144	33.868473
243.603134	1531.245361	2883.187256	1975.643799	32.871120
243.977402	1529.150146	2971.956787	1994.169678	32.230206
244.351654	1526.724121	3079.692871	2014.900879	31.435066
244.725861	1527.495972	3195.809814	2038.499268	30.629927
245.100067	1529.260376	3309.391113	2060.553467	29.845734
245.474213	1530.693970	3406.872070	2082.497803	29.411058
245.848343	1529.150146	3476.453857	2095.509766	29.084299
246.222443	1528.378174	3532.362061	2105.655029	28.806461
246.596512	1530.252808	3565.884766	2116.902588	28.819050
246.970566	1530.804077	3581.543457	2124.511230	28.950884
247.344574	1531.134888	3573.714355	2120.872559	28.872202
247.718567	1528.157471	3552.431641	2113.594727	28.920849
248.092529	1533.561035	3529.936035	2108.852783	28.816818
248.466431	1533.891724	3510.307617	2106.647705	28.979527
248.840332	1534.002197	3506.668945	2103.119141	28.850132
249.214203	1533.891846	3516.923828	2106.427246	28.871717
249.588043	1529.811768	3538.868408	2108.853516	28.821573
249.961838	1525.952148	3566.656982	2113.043701	28.769058
250.335617	1524.629028	3592.460938	2114.587402	28.530285
250.709381	1522.423584	3603.377930	2119.990967	28.716026
251.083084	1521.320801	3591.468262	2117.895508	28.817982
251.456787	1521.982422	3561.474365	2111.940674	28.926725
251.830460	1521.762085	3509.425293	2104.111328	29.298185
252.204071	1522.203125	3429.367188	2085.695801	29.546104
252.577667	1521.761963	3337.069092	2069.706055	30.184649
252.951248	1521.541260	3250.725830	2059.340332	31.101311
253.324799	1517.020142	3177.835449	2044.343384	31.750866
253.698303	1516.248169	3130.969482	2036.293579	32.206512
254.071793	1518.233032	3092.374268	2030.448975	32.539391
254.445236	1520.769287	3078.479736	2023.942871	32.302124
254.818665	1521.541260	3072.855957	2023.833008	32.378456
255.192062	1521.320801	3089.396729	2032.544434	32.601971
255.565430	1525.511108	3120.272949	2036.955566	32.070271
255.938782	1522.092651	3155.891113	2048.093018	32.194935
256.312103	1523.636475	3214.445801	2057.135254	31.552864
256.685364	1522.202881	3288.438721	2074.227539	31.254301
257.058594	1520.107666	3374.341064	2091.981201	30.841507
257.431793	1523.195435	3472.593750	2113.484619	30.280584
257.804993	1527.716431	3583.969238	2138.737061	29.715246
258.178162	1529.150024	3682.222412	2155.718994	29.101158
258.551270	1530.032227	3768.455322	2168.400391	28.518656
258.924377	1529.370483	3840.132080	2175.457520	27.959915
259.297485	1525.290405	3899.569580	2190.675293	28.024710
259.670502	1529.149780	3942.906982	2199.055908	27.753666
260.043518	1533.891602	3992.750732	2212.288574	27.589909
260.416473	1530.362793	4040.167725	2217.912354	27.394543
260.789459	1527.606079	4078.542725	2222.102783	27.225166
261.162354	1530.803955	4110.521484	2231.476074	27.160809
261.535278	1529.149902	4134.229980	2239.084717	27.251938
261.908142	1529.370483	4159.372070	2246.693604	27.274628
262.280975	1526.613647	4174.479004	2250.222412	27.328007
262.653717	1530.583374	4190.909668	2250.332520	27.054920
263.026520	1530.914307	4200.062012	2249.891602	26.936586
263.399261	1525.952148	4207.781250	2255.074219	27.187492
263.771973	1526.834351	4219.911133	2252.317627	26.938828
264.144653	1523.084961	4213.735840	2248.788818	26.971312
264.517334	1525.290405	4186.388184	2241.510986	26.914480
264.889954	1525.952148	4137.316406	2229.711426	26.949871
265.262543	1526.393188	4074.020508	2215.927490	27.065742
265.635071	1529.480835	3996.830078	2199.607178	27.159769
266.007599	1528.047363	3930.997070	2190.344238	27.561829
266.380127	1524.408325	3887.770752	2187.256592	28.046833
266.752594	1526.503418	3869.796143	2188.138672	28.235279
267.125031	1525.952148	3869.355225	2185.712891	28.153959
267.497437	1520.879517	3888.873535	2188.359375	28.187563
267.869843	1518.674072	3911.148438	2191.557373	28.124994
268.242218	1521.430908	3946.104980	2203.908203	28.147177
268.614532	1521.872070	4017.010498	2218.905029	27.935642
268.986816	1519.004883	4098.060547	2231.476074	27.625275
269.359100	1521.871948	4188.152832	2245.921875	27.155802
269.731354	1522.092407	4275.819824	2256.838867	26.681887
270.103516	1523.084961	4346.615234	2270.953613	26.487007
270.475708	1518.784424	4407.816406	2282.091309	26.420853
270.847839	1522.092529	4464.496094	2292.236328	26.173969
271.219971	1526.944702	4510.920898	2296.536865	25.790829
271.592041	1529.921875	4535.180664	2301.719971	25.681585
271.964081	1532.237671	4553.485840	2310.872559	25.771961
272.336151	1532.237671	4574.547852	2318.040283	25.829144
272.708130	1531.686279	4593.956055	2324.435791	25.887644
273.080109	1530.804077	4614.908203	2324.215332	25.725826
273.452026	1530.252686	4644.680664	2329.618652	25.666542
273.823914	1533.560913	4678.535156	2337.117188	25.550489
274.195770	1535.435425	4714.483887	2337.778809	25.238478
274.567627	1536.979126	4748.447754	2346.269775	25.200016
274.939423	1537.420288	4784.065918	2350.570313	25.045853
275.311249	1538.853882	4807.002441	2353.878418	24.938419
275.682983	1536.979370	4827.954590	2357.407227	24.929628
276.054688	1534.443115	4832.806641	2355.201660	24.883810
276.426422	1536.648560	4815.052734	2347.593018	24.735950
276.798065	1537.530640	4785.389648	2336.786133	24.608688
277.169708	1537.199951	4757.159668	2331.052002	24.654099
277.541321	1539.515625	4739.075195	2328.956787	24.673431
277.912903	1539.074585	4743.375977	2327.192627	24.595629
278.284424	1539.736206	4756.277344	2331.272949	24.608320
278.655945	1535.656250	4777.670410	2338.440430	24.761896
279.027435	1538.523315	4811.523926	2353.327148	24.894705
279.398865	1537.971924	4872.173828	2365.677734	24.824705
279.770294	1538.412964	4936.683105	2377.697510	24.697407
280.141663	1538.082275	4996.009766	2393.135498	24.727333
280.513031	1541.500610	5055.887695	2402.177979	24.490112
280.884369	1538.523193	5092.829102	2420.483154	24.813845
281.255676	1540.177368	5132.637207	2431.069580	24.798946
281.626953	1538.412964	5166.601074	2434.267578	24.691515
281.998199	1539.736206	5202.770996	2446.618164	24.757668
282.369385	1540.508057	5250.519043	2452.352051	24.577932
282.740540	1542.603271	5308.743164	2466.356689	24.527857
283.111694	1540.397827	5362.334961	2482.566895	24.651611
283.482819	1541.059326	5430.263184	2500.651855	24.673239
283.853912	1542.382813	5511.203613	2521.382813	24.667276
284.224945	1538.743774	5583.652832	2538.585449	24.718519
284.595978	1542.272461	5653.455566	2558.875488	24.727749
284.966980	1541.941650	5715.318359	2569.241211	24.615547
285.337952	1537.861450	5756.670410	2582.253418	24.755611
285.708893	1539.405273	5777.953613	2592.839355	24.853653
286.079803	1540.949097	5798.574219	2600.338135	24.882160
286.450684	1543.154785	5811.917480	2608.829102	24.964478
286.821533	1537.861572	5818.423340	2608.167480	25.003866
287.192322	1536.097412	5819.305176	2612.468018	25.130011
287.563110	1538.082275	5831.985840	2621.069092	25.221500
287.933868	1538.854126	5849.850098	2636.066162	25.451473
288.304596	1538.523315	5884.034668	2652.386719	25.632505
288.675262	1538.743896	5930.018555	2661.208496	25.561249
289.045929	1537.641113	5962.328613	2673.338379	25.667288
289.416565	1536.869141	5990.999023	2689.217529	25.871460
289.787170	1538.302734	5998.938477	2700.465332	26.053743
290.157745	1535.545898	6001.916016	2710.610596	26.309166
290.528259	1536.317749	5993.204102	2720.425049	26.568039
290.898773	1539.736084	6004.672852	2728.474854	26.623867
291.269226	1537.751221	6002.908691	2734.319336	26.797894
291.639679	1538.192261	5995.741211	2736.193604	26.875788
292.010101	1540.397827	6016.803223	2749.867676	27.018774
292.380463	1537.199829	6050.877441	2764.423340	27.188993
292.750824	1539.625854	6085.503418	2784.162354	27.377256
293.121155	1537.640869	6131.597168	2806.547607	27.621222
293.491455	1534.884155	6201.399414	2826.506836	27.678528
293.861725	1532.458130	6279.141602	2850.656494	27.770933
294.231964	1532.458130	6366.808594	2872.710938	27.723534
294.602142	1535.766235	6463.296875	2899.837891	27.682661
294.972321	1533.009399	6543.686035	2925.090332	27.782293
295.342468	1527.716309	6605.217773	2943.616455	27.885765
295.712555	1525.731445	6647.011230	2947.255371	27.757200
296.082672	1529.370483	6671.602051	2953.099854	27.686995
296.452728	1529.811523	6675.351074	2957.510986	27.746351
296.822693	1528.378052	6675.020020	2958.282715	27.783255
297.192657	1527.495850	6668.844727	2961.701416	27.895514
297.562622	1525.510986	6691.009766	2960.267822	27.775764
297.932556	1531.355469	6707.330566	2965.560791	27.708891
298.302460	1530.693848	6710.307129	2964.899170	27.689428
298.672333	1529.260376	6708.653320	2965.340332	27.726801
299.042145	1529.260376	6706.778809	2963.686279	27.704891
299.411957	1527.716553	6705.897461	2964.017090	27.737551
299.781677	1527.716553	6663.441406	2956.959473	27.829432
300.151428	1527.496094	6619.552734	2946.814453	27.873184
300.521149	1524.629028	6556.917969	2933.140381	27.989477
300.890839	1525.842041	6491.747559	2915.717529	27.988361
301.260468	1526.503662	6415.769531	2899.838135	28.088768
301.630096	1525.621338	6328.434570	2879.768555	28.194874
301.999695	1525.290527	6236.907715	2859.698730	28.321661
302.369232	1523.526245	6126.966309	2834.777100	28.484152
302.738739	1525.952148	6024.302246	2811.178711	28.571066
303.108246	1529.922119	5926.270020	2784.934082	28.546696
303.477692	1530.363159	5852.166504	2766.408203	28.600216
303.847137	1526.724121	5775.858398	2752.513916	28.847990
304.216553	1530.363037	5724.691406	2743.471436	28.922592
304.585876	1531.465820	5688.742188	2736.854980	28.994684
304.955231	1535.215088	5666.687988	2730.018311	28.919548
305.324493	1534.443115	5638.126953	2727.151123	29.064327
305.693787	1530.252686	5612.212891	2725.607422	29.283840
306.063049	1530.032227	5607.581055	2729.136230	29.407471
306.432251	1528.708740	5606.588379	2728.695068	29.426723
306.801422	1529.260132	5598.097656	2733.547119	29.597815
307.170593	1532.568481	5595.450684	2736.524414	29.633049
307.539673	1528.819092	5608.573730	2740.824951	29.707813
307.908783	1531.575928	5615.080078	2745.897461	29.737242
308.277832	1531.355347	5644.522949	2761.776855	29.914209
308.646851	1534.773926	5681.133301	2772.473145	29.850264
309.015839	1536.207520	5715.649414	2778.648438	29.727436
309.384796	1538.082153	5746.415039	2787.690918	29.693676
309.753723	1535.766357	5771.998047	2794.638184	29.716785
310.122620	1533.891724	5793.611816	2804.121582	29.819561
310.491486	1532.899292	5812.357422	2805.444824	29.736137
310.860352	1530.914307	5821.179199	2816.030762	29.954247
311.229126	1534.332886	5826.031250	2822.978516	30.026474
311.597931	1529.701416	5843.123535	2828.933105	30.120672
311.966675	1526.613892	5869.699219	2830.697266	30.026657
312.335388	1526.834351	5896.274414	2838.636963	30.022215
312.704071	1522.974854	5922.739746	2843.929932	30.023312
313.072723	1524.959717	5931.230957	2852.751953	30.134146
313.441345	1523.526245	5931.341309	2849.002686	30.071054
313.809875	1523.195313	5911.823242	2839.519287	29.993975
314.178436	1523.195190	5885.688477	2831.138428	29.981554
314.546967	1521.982178	5851.614258	2818.456787	29.944223
314.915466	1519.446045	5811.254883	2808.973389	30.046246
315.283936	1523.967163	5773.100586	2798.276855	29.989874
315.652374	1523.195557	5733.402344	2790.116699	30.091660
316.020752	1523.416016	5692.822266	2770.598633	29.912716
316.389130	1525.842041	5654.116699	2759.681641	29.887539
316.757416	1525.621460	5628.202637	2758.137939	30.042465
