Jaz Data File
++++++++++++++++++++++++++++++++++++
Date: Fri Jun 21 03:15:53 2019
User: jaz
Dark Spectrum Present: Yes
Reference Spectrum Present: Yes
Processed Spectrum Present: Yes
Spectrometers: JAZA3541
Integration Time (usec): 119000 (JAZA3541)
Spectra Averaged: 1 (JAZA3541)
Boxcar Smoothing: 10 (JAZA3541)
Correct for Electrical Dark: No (JAZA3541)
Strobe/Lamp Enabled: Yes (JAZA3541)
Correct for Detector Non-linearity: No (JAZA3541)
Correct for Stray Light: No (JAZA3541)
Number of Pixels in Processed Spectrum: 2048
>>>>>Begin Processed Spectral Data<<<<<
W	D	R	S	P
190.543274	0.000000	0.000000	0.000000	0.000000
190.921555	0.000000	0.000000	0.000000	0.000000
191.299805	1558.482544	1405.644653	1729.846069	-112.121101
191.678024	1533.009521	1440.380615	1715.951782	-197.500183
192.056229	1539.956665	1535.325317	1729.846069	-4100.089844
192.434387	1519.115234	1551.535278	1750.687622	714.287720
192.812531	1604.796997	1597.849854	1725.214600	-1733.339722
193.190659	1556.166748	1542.272461	1769.213379	-1533.339722
193.568741	1623.322754	1530.693848	1769.213379	-157.500107
193.946793	0.000000	0.000000	0.000000	0.000000
194.324829	1410.165894	1403.770142	1577.559692	-2617.265381
194.702835	1483.938232	1477.322021	1663.462036	-2713.393066
195.080811	1555.725708	1551.645752	1746.166504	-4667.716797
195.458755	1552.307251	1560.467407	1746.938232	2385.137939
195.836685	1553.520386	1565.540039	1751.459473	1646.795288
196.214569	1554.953857	1568.627808	1754.436890	1458.854492
196.592422	1551.425171	1571.164063	1755.649902	1034.631226
196.970261	1549.219727	1570.833130	1757.744995	964.796082
197.348068	1548.999146	1571.274170	1754.988281	924.753784
197.725861	1545.690796	1573.810425	1755.318970	745.487000
198.103622	1539.625854	1573.589844	1755.429321	635.389038
198.481323	1540.287598	1569.399536	1757.193604	745.075806
198.859039	1539.846436	1568.958374	1758.075684	749.621155
199.236694	1536.758789	1568.296631	1755.870361	694.757690
199.614334	1539.295166	1566.201660	1754.877808	801.229004
199.991959	1540.728760	1571.604858	1751.900635	683.933167
200.369553	1537.751465	1570.502075	1751.900635	653.878418
200.747101	1536.759033	1571.935669	1750.908081	608.782043
201.124619	1535.215210	1570.502197	1751.680054	613.440979
201.502136	1531.796631	1571.274048	1751.349121	556.147034
201.879623	1529.922119	1568.517334	1750.577393	571.716675
202.257065	1525.621216	1569.730225	1750.136353	509.000641
202.634476	1525.621216	1573.589600	1747.158813	461.840851
203.011871	1524.187744	1573.258911	1750.797852	461.798889
203.389221	1524.408203	1571.715088	1751.680054	480.420258
203.766571	1523.415649	1570.722656	1750.908081	480.885284
204.143875	1523.305542	1567.635010	1747.159058	504.976776
204.521164	1526.613770	1564.878296	1747.379517	576.946228
204.898392	1524.408203	1563.444702	1745.394531	566.101807
205.275620	1523.856812	1563.665405	1749.805420	567.587524
205.652817	1524.297852	1562.783081	1749.254150	584.526306
206.029984	1529.370483	1566.422241	1748.813110	592.259705
206.407135	1528.378052	1568.848267	1746.717773	539.507202
206.784225	1530.473389	1569.950928	1748.151367	551.397034
207.161301	1530.252808	1570.281616	1746.386963	539.946533
207.538376	1528.929443	1571.274170	1744.401978	508.853302
207.915405	1529.260376	1568.517456	1743.630005	546.066162
208.292404	1529.480835	1568.737671	1744.843140	548.598206
208.669373	1525.952148	1570.833008	1748.702881	496.315643
209.046310	1524.628784	1571.053589	1749.695068	484.797485
209.423218	1528.267822	1569.509644	1754.547241	548.664978
209.800095	1530.032227	1570.612549	1757.083496	559.510742
210.176956	1530.032227	1570.833130	1761.053345	566.215698
210.553787	1531.686279	1566.201660	1761.604736	666.133362
210.930603	1535.435425	1566.091553	1758.516968	727.689880
211.307358	1536.648438	1565.760620	1759.509277	765.524353
211.684113	1538.412842	1570.391968	1757.965576	686.550171
212.060837	1534.773804	1573.920776	1760.612183	576.898682
212.437531	1533.340210	1574.802856	1756.752563	538.828003
212.814178	1532.458130	1578.772705	1756.421631	483.570251
213.190826	1532.788940	1580.426758	1752.892822	462.036041
213.567413	1530.914307	1580.095947	1750.356812	446.187836
213.943985	1528.267822	1576.015869	1749.695068	463.740936
214.320541	1528.488281	1577.669800	1748.371826	447.085724
214.697052	1527.716431	1577.228760	1743.409546	435.635162
215.073563	1529.591064	1581.198486	1746.276611	419.872833
215.449997	1529.921875	1582.852661	1745.504883	407.292297
215.826431	1528.708862	1588.586670	1746.276733	363.353088
216.202850	1529.370483	1590.792236	1747.489990	355.117676
216.579224	1533.119751	1588.807495	1745.284180	380.989441
216.955582	1533.560791	1588.586914	1746.387085	386.773193
217.331894	1531.135010	1586.932861	1740.873535	375.889954
217.708191	1532.017090	1588.035400	1740.763184	372.639038
218.084442	1537.420532	1591.674438	1738.778320	371.139709
218.460678	1534.443115	1598.180420	1740.542603	323.357697
218.836899	1532.678711	1603.694214	1739.109009	290.683441
219.213074	1532.127563	1606.892090	1740.873291	279.204254
219.589233	1531.024658	1605.348389	1741.204224	282.789307
219.965347	1533.891846	1609.869385	1737.565308	268.070618
220.341431	1535.987061	1615.713867	1741.424805	257.677124
220.717499	1535.435669	1614.721558	1744.071289	263.143433
221.093552	1534.002075	1619.242554	1744.843140	247.348526
221.469543	1535.104858	1625.197510	1749.143799	237.576477
221.845535	1536.207642	1630.380249	1749.364258	226.346725
222.221466	1537.310303	1634.350098	1751.128906	220.341156
222.597397	1535.435547	1642.069214	1754.436890	205.377304
222.973297	1537.420532	1647.362183	1755.098389	197.993988
223.349167	1536.979492	1655.853271	1757.414063	185.435822
223.725006	1537.530640	1662.359375	1759.950562	178.180069
224.100800	1538.082153	1671.952881	1757.303955	163.756332
224.476578	1538.854004	1682.097900	1758.737549	153.502914
224.852325	1537.971680	1701.726563	1758.406616	134.612747
225.228058	1541.279907	1724.332397	1762.376465	120.783150
225.603760	1540.838867	1750.246460	1759.178589	104.265427
225.979416	1536.317749	1779.248169	1757.083496	90.876122
226.355057	1535.325195	1813.322388	1757.414429	79.889023
226.730652	1533.671143	1852.028076	1760.171265	71.146599
227.106232	1534.773926	1886.543335	1757.303955	63.260201
227.481796	1531.575928	1920.286865	1755.318970	57.560265
227.857315	1528.378052	1946.972900	1759.729858	55.268669
228.232788	1528.819214	1971.673950	1759.840088	52.166286
228.608246	1531.465698	1999.903687	1761.935425	49.199623
228.983704	1534.112305	2022.950684	1764.802490	47.191505
229.359100	1531.575928	2040.263428	1764.251099	45.740295
229.734482	1528.378052	2061.546143	1764.471680	44.281277
230.109833	1529.039795	2075.881592	1765.243652	43.194183
230.485153	1528.488403	2087.349609	1763.258789	42.008709
230.860443	1521.541260	2101.575195	1763.699951	41.749054
231.235703	1520.879517	2121.534668	1767.118286	40.995033
231.610931	1519.225464	2137.523926	1768.992920	40.395935
231.986145	1517.240479	2152.079834	1775.829834	40.733036
232.361313	1516.468506	2165.532959	1779.909912	40.587864
232.736465	1519.115112	2169.833984	1782.997803	40.552486
233.111572	1517.571289	2172.921387	1780.681885	40.148098
233.486664	1518.894653	2171.708252	1784.982544	40.760162
233.861725	1517.350586	2169.944092	1787.518555	41.399120
234.236755	1520.107422	2156.931885	1789.172852	42.251114
234.611771	1522.313110	2138.516357	1787.959839	43.110245
234.986740	1523.415771	2132.671875	1787.739258	43.384628
235.361679	1526.062256	2128.922607	1789.944580	43.771717
235.736588	1526.393188	2124.952881	1787.959839	43.699341
236.111496	1527.936890	2122.196045	1788.841919	43.904251
236.486343	1528.819092	2122.857666	1791.929443	44.291794
236.861160	1527.716309	2128.371582	1791.819336	43.969151
237.235962	1529.370483	2138.626465	1792.591187	43.203632
237.610733	1532.016968	2152.962158	1797.994629	42.834320
237.985474	1532.016968	2177.111572	1799.759155	41.504330
238.360199	1533.009521	2207.988037	1806.044434	40.450905
238.734879	1534.994385	2240.628662	1811.888916	39.240517
239.109543	1532.347900	2281.539551	1812.329956	37.371220
239.484177	1533.450562	2334.360352	1819.277344	35.687763
239.858749	1535.325195	2397.105469	1822.254639	33.294964
240.233322	1530.804199	2464.923096	1826.775879	31.684584
240.607864	1528.709106	2528.660889	1833.943481	30.524910
240.982391	1529.370728	2583.025391	1843.096191	29.774981
241.356857	1527.826904	2627.685547	1842.765259	28.634439
241.731308	1533.340454	2665.288574	1844.529541	27.491463
242.105728	1529.150024	2699.583252	1841.662354	26.700569
242.480118	1528.708984	2736.414307	1848.058228	26.442646
242.854492	1529.480957	2770.378418	1854.784790	26.215206
243.228836	1527.606323	2818.898193	1860.408813	25.772833
243.603134	1531.245361	2883.187256	1871.546265	25.171267
243.977402	1529.150146	2971.956787	1881.691406	24.434408
244.351654	1526.724121	3079.692871	1887.315308	23.219475
244.725861	1527.495972	3195.809814	1899.224731	22.281704
245.100067	1529.260376	3309.391113	1910.141968	21.396271
245.474213	1530.693970	3406.872070	1917.530151	20.618309
245.848343	1529.150146	3476.453857	1930.983398	20.635366
246.222443	1528.378174	3532.362061	1937.379150	20.409395
246.596512	1530.252808	3565.884766	1938.040771	20.032499
246.970566	1530.804077	3581.543457	1942.892700	20.094637
247.344574	1531.134888	3573.714355	1940.025513	20.018347
247.718567	1528.157471	3552.431641	1939.584473	20.324667
248.092529	1533.561035	3529.936035	1937.158325	20.216507
248.466431	1533.891724	3510.307617	1933.629883	20.225407
248.840332	1534.002197	3506.668945	1930.872925	20.118488
249.214203	1533.891846	3516.923828	1937.048340	20.330307
249.588043	1529.811768	3538.868408	1943.334106	20.582911
249.961838	1525.952148	3566.656982	1951.163330	20.836487
250.335617	1524.629028	3592.460938	1951.494263	20.643129
250.709381	1522.423584	3603.377930	1954.471191	20.761993
251.083084	1521.320801	3591.468262	1954.802246	20.939640
251.456787	1521.982422	3561.474365	1948.075684	20.892128
251.830460	1521.762085	3509.425293	1944.436523	21.264893
252.204071	1522.203125	3429.367188	1938.040894	21.803986
252.577667	1521.761963	3337.069092	1932.637451	22.633938
252.951248	1521.541260	3250.725830	1927.123901	23.455139
253.324799	1517.020142	3177.835449	1918.522705	24.175028
253.698303	1516.248169	3130.969482	1909.700684	24.366589
254.071793	1518.233032	3092.374268	1906.061768	24.637480
254.445236	1520.769287	3078.479736	1904.959106	24.663750
254.818665	1521.541260	3072.855957	1902.091919	24.530849
255.192062	1521.320801	3089.396729	1903.194702	24.353024
255.565430	1525.511108	3120.272949	1905.620850	23.834890
255.938782	1522.092651	3155.891113	1908.487671	23.650103
256.312103	1523.636475	3214.445801	1916.868286	23.257017
256.685364	1522.202881	3288.438721	1923.594849	22.725842
257.058594	1520.107666	3374.341064	1930.983276	22.158787
257.431793	1523.195435	3472.593750	1939.694702	21.365530
257.804993	1527.716431	3583.969238	1952.706787	20.668194
258.178162	1529.150024	3682.222412	1967.814331	20.373878
258.551270	1530.032227	3768.455322	1974.541260	19.858133
258.924377	1529.370483	3840.132080	1980.495728	19.522793
259.297485	1525.290405	3899.569580	1987.001465	19.446367
259.670502	1529.149780	3942.906982	1987.552979	18.991272
260.043518	1533.891602	3992.750732	1995.382202	18.768484
260.416473	1530.362793	4040.167725	1995.933838	18.550089
260.789459	1527.606079	4078.542725	1998.801147	18.471455
261.162354	1530.803955	4110.521484	2005.086670	18.385063
261.535278	1529.149902	4134.229980	2009.938843	18.455822
261.908142	1529.370483	4159.372070	2012.254517	18.360600
262.280975	1526.613647	4174.479004	2015.562744	18.465784
262.653717	1530.583374	4190.909668	2020.965942	18.433174
263.026520	1530.914307	4200.062012	2024.384521	18.487932
263.399261	1525.952148	4207.781250	2021.406860	18.474506
263.771973	1526.834351	4219.911133	2025.156006	18.503805
264.144653	1523.084961	4213.735840	2024.604858	18.639353
264.517334	1525.290405	4186.388184	2027.251465	18.862932
264.889954	1525.952148	4137.316406	2026.479370	19.167269
265.262543	1526.393188	4074.020508	2020.524536	19.395746
265.635071	1529.480835	3996.830078	2011.592651	19.539667
266.007599	1528.047363	3930.997070	2001.998901	19.723740
266.380127	1524.408325	3887.770752	1995.603271	19.937483
266.752594	1526.503418	3869.796143	1995.161987	20.000002
267.125031	1525.952148	3869.355225	1997.257202	20.111992
267.497437	1520.879517	3888.873535	1998.029175	20.149950
267.869843	1518.674072	3911.148438	1997.588013	20.017515
268.242218	1521.430908	3946.104980	2002.109131	19.824448
268.614532	1521.872070	4017.010498	2008.284424	19.494404
268.986816	1519.004883	4098.060547	2014.349365	19.206429
269.359100	1521.871948	4188.152832	2022.619751	18.780760
269.731354	1522.092407	4275.819824	2032.433960	18.532755
270.103516	1523.084961	4346.615234	2040.042603	18.308910
270.475708	1518.784424	4407.816406	2043.902344	18.176258
270.847839	1522.092529	4464.496094	2049.636475	17.929014
271.219971	1526.944702	4510.920898	2060.002197	17.864000
271.592041	1529.921875	4535.180664	2058.017334	17.572378
271.964081	1532.237671	4553.485840	2056.583984	17.355288
272.336151	1532.237671	4574.547852	2053.937256	17.148140
272.708130	1531.686279	4593.956055	2052.944824	17.021967
273.080109	1530.804077	4614.908203	2054.268311	16.972977
273.452026	1530.252686	4644.680664	2058.899658	16.974127
273.823914	1533.560913	4678.535156	2061.766846	16.795238
274.195770	1535.435425	4714.483887	2068.383057	16.764376
274.567627	1536.979126	4748.447754	2073.124512	16.694710
274.939423	1537.420288	4784.065918	2072.793701	16.490047
275.311249	1538.853882	4807.002441	2077.976807	16.496281
275.682983	1536.979370	4827.954590	2076.653564	16.398611
276.054688	1534.443115	4832.806641	2082.056885	16.602591
276.426422	1536.648560	4815.052734	2080.292480	16.582577
276.798065	1537.530640	4785.389648	2081.174805	16.738541
277.169708	1537.199951	4757.159668	2078.197266	16.801369
277.541321	1539.515625	4739.075195	2072.683594	16.663792
277.912903	1539.074585	4743.375977	2076.653320	16.776785
278.284424	1539.736206	4756.277344	2078.086914	16.736946
278.655945	1535.656250	4777.670410	2080.954346	16.819733
279.027435	1538.523315	4811.523926	2083.821045	16.660484
279.398865	1537.971924	4872.173828	2092.643066	16.635799
279.770294	1538.412964	4936.683105	2103.780518	16.636923
280.141663	1538.082275	4996.009766	2113.374023	16.636894
280.513031	1541.500610	5055.887695	2119.659668	16.451206
280.884369	1538.523193	5092.829102	2124.511475	16.486715
281.255676	1540.177368	5132.637207	2128.040283	16.363798
281.626953	1538.412964	5166.601074	2135.208252	16.448853
281.998199	1539.736206	5202.770996	2138.406006	16.343548
282.369385	1540.508057	5250.519043	2145.573730	16.309000
282.740540	1542.603271	5308.743164	2153.513428	16.221123
283.111694	1540.397827	5362.334961	2161.232422	16.243979
283.482819	1541.059326	5430.263184	2177.221680	16.357136
283.853912	1542.382813	5511.203613	2183.176514	16.145695
284.224945	1538.743774	5583.652832	2190.564697	16.114599
284.595978	1542.272461	5653.455566	2197.952881	15.948704
284.966980	1541.941650	5715.318359	2205.010498	15.888065
285.337952	1537.861450	5756.670410	2213.170654	16.007105
285.708893	1539.405273	5777.953613	2211.296143	15.851910
286.079803	1540.949097	5798.574219	2218.022461	15.902607
286.450684	1543.154785	5811.917480	2222.102783	15.905030
286.821533	1537.861572	5818.423340	2226.734131	16.093042
287.192322	1536.097412	5819.305176	2232.799316	16.265890
287.563110	1538.082275	5831.985840	2238.092285	16.302416
287.933868	1538.854126	5849.850098	2241.620850	16.301725
288.304596	1538.523315	5884.034668	2251.655762	16.410784
288.675262	1538.743896	5930.018555	2263.896240	16.513483
289.045929	1537.641113	5962.328613	2269.961182	16.550776
289.416565	1536.869141	5990.999023	2276.357178	16.602301
289.787170	1538.302734	5998.938477	2280.326904	16.634941
290.157745	1535.545898	6001.916016	2280.878418	16.687656
290.528259	1536.317749	5993.204102	2290.251221	16.916147
290.898773	1539.736084	6004.672852	2296.206055	16.942457
291.269226	1537.751221	6002.908691	2295.654785	16.973726
291.639679	1538.192261	5995.741211	2302.602051	17.148657
292.010101	1540.397827	6016.803223	2307.453613	17.135530
292.380463	1537.199829	6050.877441	2315.944824	17.253004
292.750824	1539.625854	6085.503418	2324.546143	17.266640
293.121155	1537.640869	6131.597168	2334.580811	17.347574
293.491455	1534.884155	6201.399414	2349.578125	17.458294
293.861725	1532.458130	6279.141602	2360.164063	17.437563
294.231964	1532.458130	6366.808594	2369.757813	17.319796
294.602142	1535.766235	6463.296875	2385.967773	17.254108
294.972321	1533.009399	6543.686035	2399.200439	17.286907
295.342468	1527.716309	6605.217773	2409.676270	17.369959
295.712555	1525.731445	6647.011230	2416.072266	17.385124
296.082672	1529.370483	6671.602051	2421.585693	17.350740
296.452728	1529.811523	6675.351074	2423.570801	17.369593
296.822693	1528.378052	6675.020020	2426.327637	17.447290
297.192657	1527.495850	6668.844727	2422.026855	17.398762
297.562622	1525.510986	6691.009766	2427.319824	17.458309
297.932556	1531.355469	6707.330566	2433.826172	17.435762
298.302460	1530.693848	6710.307129	2429.194580	17.346869
298.672333	1529.260376	6708.653320	2431.289795	17.415735
299.042145	1529.260376	6706.778809	2431.841309	17.432693
299.411957	1527.716553	6705.897461	2425.445313	17.336760
299.781677	1527.716553	6663.441406	2424.232422	17.456463
300.151428	1527.496094	6619.552734	2415.851807	17.445911
300.521149	1524.629028	6556.917969	2410.779297	17.609287
300.890839	1525.842041	6491.747559	2403.501221	17.673700
301.260468	1526.503662	6415.769531	2394.128174	17.745497
301.630096	1525.621338	6328.434570	2384.975586	17.892725
301.999695	1525.290527	6236.907715	2373.066162	17.993305
302.369232	1523.526245	6126.966309	2356.966553	18.104729
302.738739	1525.952148	6024.302246	2339.322754	18.081532
303.108246	1529.922119	5926.270020	2324.436279	18.072142
303.477692	1530.363159	5852.166504	2317.599365	18.215458
303.847137	1526.724121	5775.858398	2308.998047	18.410196
304.216553	1530.363037	5724.691406	2301.058105	18.374697
304.585876	1531.465820	5688.742188	2298.411621	18.448277
304.955231	1535.215088	5666.687988	2299.845215	18.507448
305.324493	1534.443115	5638.126953	2298.632080	18.622025
305.693787	1530.252686	5612.212891	2296.206055	18.764351
306.063049	1530.032227	5607.581055	2302.270996	18.938799
306.432251	1528.708740	5606.588379	2299.183350	18.894001
306.801422	1529.260132	5598.097656	2303.042725	19.017290
307.170593	1532.568481	5595.450684	2305.909912	19.034306
307.539673	1528.819092	5608.573730	2308.666748	19.115063
307.908783	1531.575928	5615.080078	2312.085205	19.113714
308.277832	1531.355347	5644.522949	2310.541504	18.943701
308.646851	1534.773926	5681.133301	2313.959717	18.792048
309.015839	1536.207520	5715.649414	2317.929688	18.703985
309.384796	1538.082153	5746.415039	2320.245361	18.586058
309.753723	1535.766357	5771.998047	2326.861572	18.674503
310.122620	1533.891724	5793.611816	2334.250244	18.788992
310.491486	1532.899292	5812.357422	2343.402832	18.939398
310.860352	1530.914307	5821.179199	2346.049316	18.999643
311.229126	1534.332886	5826.031250	2347.151855	18.939331
311.597931	1529.701416	5843.123535	2344.836426	18.897642
311.966675	1526.613892	5869.699219	2348.806152	18.931063
312.335388	1526.834351	5896.274414	2351.673096	18.877447
312.704071	1522.974854	5922.739746	2355.201904	18.915262
313.072723	1524.959717	5931.230957	2358.620361	18.919867
313.441345	1523.526245	5931.341309	2357.517822	18.920748
313.809875	1523.195313	5911.823242	2353.327637	18.915531
314.178436	1523.195190	5885.688477	2354.099121	19.046537
314.546967	1521.982178	5851.614258	2346.380127	19.040833
314.915466	1519.446045	5811.254883	2345.608154	19.249743
315.283936	1523.967163	5773.100586	2343.954346	19.297752
315.652374	1523.195557	5733.402344	2343.512939	19.484015
316.020752	1523.416016	5692.822266	2342.410400	19.642950
316.389130	1525.842041	5654.116699	2342.079346	19.771875
316.757416	1525.621460	5628.202637	2340.645996	19.866140
