Jaz Data File
++++++++++++++++++++++++++++++++++++
Date: Fri Jun 21 03:16:00 2019
User: jaz
Dark Spectrum Present: Yes
Reference Spectrum Present: Yes
Processed Spectrum Present: Yes
Spectrometers: JAZA3541
Integration Time (usec): 119000 (JAZA3541)
Spectra Averaged: 1 (JAZA3541)
Boxcar Smoothing: 10 (JAZA3541)
Correct for Electrical Dark: No (JAZA3541)
Strobe/Lamp Enabled: Yes (JAZA3541)
Correct for Detector Non-linearity: No (JAZA3541)
Correct for Stray Light: No (JAZA3541)
Number of Pixels in Processed Spectrum: 2048
>>>>>Begin Processed Spectral Data<<<<<
W	D	R	S	P
190.543274	0.000000	0.000000	0.000000	0.000000
190.921555	0.000000	0.000000	0.000000	0.000000
191.299805	1558.482544	1405.644653	1660.374390	-66.666611
191.678024	1533.009521	1440.380615	1736.793335	-220.000244
192.056229	1539.956665	1535.325317	1709.004639	-3650.081787
192.434387	1519.115234	1551.535278	1713.635986	600.001526
192.812531	1604.796997	1597.849854	1743.740479	-2000.008789
193.190659	1556.166748	1542.272461	1715.951782	-1150.005249
193.568741	1623.322754	1530.693848	1741.424683	-127.500076
193.946793	0.000000	0.000000	0.000000	0.000000
194.324829	1410.165894	1403.770142	1578.221313	-2627.610107
194.702835	1483.938232	1477.322021	1659.161499	-2648.393066
195.080811	1555.725708	1551.645752	1741.865845	-4562.307617
195.458755	1552.307251	1560.467407	1743.078857	2337.842529
195.836685	1553.520386	1565.540039	1743.961182	1584.411743
196.214569	1554.953857	1568.627808	1743.850586	1381.434937
196.592422	1551.425171	1571.164063	1742.306885	967.033569
196.970261	1549.219727	1570.833130	1744.181519	902.041138
197.348068	1548.999146	1571.274170	1744.953491	879.704285
197.725861	1545.690796	1573.810425	1745.173950	709.408936
198.103622	1539.625854	1573.589844	1749.584839	618.181152
198.481323	1540.287598	1569.399536	1750.026001	720.454956
198.859039	1539.846436	1568.958374	1747.158813	712.121521
199.236694	1536.758789	1568.296631	1747.489746	668.184448
199.614334	1539.295166	1566.201660	1743.189209	757.787476
199.991959	1540.728760	1571.604858	1746.607544	666.790161
200.369553	1537.751465	1570.502075	1745.394531	634.012817
200.747101	1536.759033	1571.935669	1744.843140	591.540649
201.124619	1535.215210	1570.502197	1742.968384	588.752930
201.502136	1531.796631	1571.274048	1746.827881	544.694336
201.879623	1529.922119	1568.517334	1742.417236	550.573730
202.257065	1525.621216	1569.730225	1739.329590	484.500519
202.634476	1525.621216	1573.589600	1739.660400	446.208862
203.011871	1524.187744	1573.258911	1740.321777	440.450165
203.389221	1524.408203	1571.715088	1742.306763	460.606445
203.766571	1523.415649	1570.722656	1743.189209	464.568726
204.143875	1523.305542	1567.635010	1744.401978	498.757263
204.521164	1526.613770	1564.878296	1748.592407	580.115967
204.898392	1524.408203	1563.444702	1743.961182	562.429993
205.275620	1523.856812	1563.665405	1745.505005	556.784790
205.652817	1524.297852	1562.783081	1746.828125	578.222534
206.029984	1529.370483	1566.422241	1746.387085	585.712036
206.407135	1528.378052	1568.848267	1748.261475	543.321594
206.784225	1530.473389	1569.950928	1748.261719	551.676575
207.161301	1530.252808	1570.281616	1750.577515	550.415344
207.538376	1528.929443	1571.274170	1748.813110	519.270508
207.915405	1529.260376	1568.517456	1750.356934	563.201721
208.292404	1529.480835	1568.737671	1751.790527	566.295471
208.669373	1525.952148	1570.833008	1753.224121	506.389526
209.046310	1524.628784	1571.053589	1756.532227	499.524872
209.423218	1528.267822	1569.509644	1751.680298	541.713379
209.800095	1530.032227	1570.612549	1755.208862	554.891174
210.176956	1530.032227	1570.833130	1756.862915	555.945251
210.553787	1531.686279	1566.201660	1758.627197	657.506653
210.930603	1535.435425	1566.091553	1757.965576	725.891235
211.307358	1536.648438	1565.760620	1756.311401	754.539673
211.684113	1538.412842	1570.391968	1754.767700	676.550232
212.060837	1534.773804	1573.920776	1753.775269	559.433960
212.437531	1533.340210	1574.802856	1749.474731	521.275269
212.814178	1532.458130	1578.772705	1753.664795	477.617828
213.190826	1532.788940	1580.426758	1754.877930	466.203125
213.567413	1530.914307	1580.095947	1753.334106	452.241516
213.943985	1528.267822	1576.015869	1752.562500	469.746277
214.320541	1528.488281	1577.669800	1751.459473	453.363770
214.697052	1527.716431	1577.228760	1753.223999	455.457397
215.073563	1529.591064	1581.198486	1755.318970	437.394257
215.449997	1529.921875	1582.852661	1753.995728	423.333710
215.826431	1528.708862	1588.586670	1748.040894	366.299377
216.202850	1529.370483	1590.792236	1745.284180	351.526428
216.579224	1533.119751	1588.807495	1742.306885	375.643036
216.955582	1533.560791	1588.586914	1740.542603	376.151917
217.331894	1531.135010	1586.932861	1740.211670	374.703796
217.708191	1532.017090	1588.035400	1737.895996	367.520721
218.084442	1537.420532	1591.674438	1736.462646	366.871490
218.460678	1534.443115	1598.180420	1735.249390	315.052979
218.836899	1532.678711	1603.694214	1734.808228	284.627319
219.213074	1532.127563	1606.892090	1736.462402	273.304535
219.589233	1531.024658	1605.348389	1736.572754	276.557831
219.965347	1533.891846	1609.869385	1735.911255	265.893585
220.341431	1535.987061	1615.713867	1740.542603	256.570587
220.717499	1535.435669	1614.721558	1741.204224	259.527344
221.093552	1534.002075	1619.242554	1742.858276	245.019974
221.469543	1535.104858	1625.197510	1744.843140	232.802872
221.845535	1536.207642	1630.380249	1749.915894	226.932495
222.221466	1537.310303	1634.350098	1752.121460	221.363983
222.597397	1535.435547	1642.069214	1751.349487	202.481964
222.973297	1537.420532	1647.362183	1748.372070	191.875900
223.349167	1536.979492	1655.853271	1751.569702	180.519379
223.725006	1537.530640	1662.359375	1755.870361	174.911423
224.100800	1538.082153	1671.952881	1757.414063	163.838593
224.476578	1538.854004	1682.097900	1758.296509	153.195007
224.852325	1537.971680	1701.726563	1756.201050	133.265869
225.228058	1541.279907	1724.332397	1759.399048	119.156609
225.603760	1540.838867	1750.246460	1758.957764	104.159973
225.979416	1536.317749	1779.248169	1765.463867	94.325821
226.355057	1535.325195	1813.322388	1769.764893	84.331680
226.730652	1533.671143	1852.028076	1774.065674	75.511009
227.106232	1534.773926	1886.543335	1778.035400	69.153679
227.481796	1531.575928	1920.286865	1781.563965	64.312065
227.857315	1528.378052	1946.972900	1787.408447	61.880932
228.232788	1528.819214	1971.673950	1785.864746	58.042854
228.608246	1531.465698	1999.903687	1784.761963	54.072529
228.983704	1534.112305	2022.950684	1782.887085	50.891006
229.359100	1531.575928	2040.263428	1780.902344	49.013672
229.734482	1528.378052	2061.546143	1776.491455	46.535683
230.109833	1529.039795	2075.881592	1775.829956	45.130085
230.485153	1528.488403	2087.349609	1775.499023	44.198921
230.860443	1521.541260	2101.575195	1778.586670	44.315582
231.235703	1520.879517	2121.534668	1776.712036	42.592247
231.610931	1519.225464	2137.523926	1780.791992	42.304249
231.986145	1517.240479	2152.079834	1782.335693	41.757843
232.361313	1516.468506	2165.532959	1786.856934	41.658180
232.736465	1519.115112	2169.833984	1787.518433	41.247200
233.111572	1517.571289	2172.921387	1785.974731	40.955734
233.486664	1518.894653	2171.708252	1789.282959	41.418915
233.861725	1517.350586	2169.944092	1789.613892	41.720200
234.236755	1520.107422	2156.931885	1790.606445	42.476231
234.611771	1522.313110	2138.516357	1790.275269	43.486004
234.986740	1523.415771	2132.671875	1788.070068	43.438923
235.361679	1526.062256	2128.922607	1781.563965	42.381573
235.736588	1526.393188	2124.952881	1782.556396	42.796600
236.111496	1527.936890	2122.196045	1785.974731	43.421768
236.486343	1528.819092	2122.857666	1789.283081	43.846310
236.861160	1527.716309	2128.371582	1790.275635	43.712151
237.235962	1529.370483	2138.626465	1791.708862	43.058811
237.610733	1532.016968	2152.962158	1796.119751	42.532383
237.985474	1532.016968	2177.111572	1799.648682	41.487206
238.360199	1533.009521	2207.988037	1805.492920	40.369194
238.734879	1534.994385	2240.628662	1809.683228	38.927933
239.109543	1532.347900	2281.539551	1812.219482	37.356472
239.484177	1533.450562	2334.360352	1813.763550	34.999321
239.858749	1535.325195	2397.105469	1817.953735	32.795895
240.233322	1530.804199	2464.923096	1823.467651	31.330429
240.607864	1528.709106	2528.660889	1833.171631	30.447721
240.982391	1529.370728	2583.025391	1841.662720	29.638933
241.356857	1527.826904	2627.685547	1845.852905	28.915171
241.731308	1533.340454	2665.288574	1848.058228	27.803198
242.105728	1529.150024	2699.583252	1848.389160	27.275297
242.480118	1528.708984	2736.414307	1848.609741	26.488312
242.854492	1529.480957	2770.378418	1853.241211	26.090815
243.228836	1527.606323	2818.898193	1863.937744	26.046120
243.603134	1531.245361	2883.187256	1868.679321	24.959206
243.977402	1529.150146	2971.956787	1877.611450	24.151628
244.351654	1526.724121	3079.692871	1886.653687	23.176870
244.725861	1527.495972	3195.809814	1897.570679	22.182560
245.100067	1529.260376	3309.391113	1910.141724	21.396257
245.474213	1530.693970	3406.872070	1920.066406	20.753490
245.848343	1529.150146	3476.453857	1929.439331	20.556074
246.222443	1528.378174	3532.362061	1930.983276	20.090237
246.596512	1530.252808	3565.884766	1933.298706	19.799547
246.970566	1530.804077	3581.543457	1938.371460	19.874168
247.344574	1531.134888	3573.714355	1940.466675	20.039944
247.718567	1528.157471	3552.431641	1943.664429	20.526220
248.092529	1533.561035	3529.936035	1938.040771	20.260710
248.466431	1533.891724	3510.307617	1936.055786	20.348150
248.840332	1534.002197	3506.668945	1939.143433	20.537743
249.214203	1533.891846	3516.923828	1937.158691	20.335873
249.588043	1529.811768	3538.868408	1941.128540	20.473129
249.961838	1525.952148	3566.656982	1946.421509	20.604124
250.335617	1524.629028	3592.460938	1951.494019	20.643118
250.709381	1522.423584	3603.377930	1955.904907	20.830891
251.083084	1521.320801	3591.468262	1954.912354	20.944960
251.456787	1521.982422	3561.474365	1952.376343	21.102997
251.830460	1521.762085	3509.425293	1950.611938	21.575579
252.204071	1522.203125	3429.367188	1944.877563	22.162458
252.577667	1521.761963	3337.069092	1935.945557	22.816172
252.951248	1521.541260	3250.725830	1928.226318	23.518892
253.324799	1517.020142	3177.835449	1919.183960	24.214844
253.698303	1516.248169	3130.969482	1910.031616	24.387085
254.071793	1518.233032	3092.374268	1911.465088	24.980736
254.445236	1520.769287	3078.479736	1908.598022	24.897358
254.818665	1521.541260	3072.855957	1910.031616	25.042652
255.192062	1521.320801	3089.396729	1909.039063	24.725733
255.565430	1525.511108	3120.272949	1910.583008	24.146044
255.938782	1522.092651	3155.891113	1917.420044	24.196827
256.312103	1523.636475	3214.445801	1924.697754	23.720078
256.685364	1522.202881	3288.438721	1928.777710	23.019283
257.058594	1520.107666	3374.341064	1937.158447	22.491817
257.431793	1523.195435	3472.593750	1947.303589	21.755850
257.804993	1527.716431	3583.969238	1958.551392	20.952431
258.178162	1529.150024	3682.222412	1970.901733	20.517273
258.551270	1530.032227	3768.455322	1976.966919	19.966497
258.924377	1529.370483	3840.132080	1985.347656	19.732765
259.297485	1525.290405	3899.569580	1991.082031	19.618233
259.670502	1529.149780	3942.906982	1991.633423	19.160320
260.043518	1533.891602	3992.750732	1996.485474	18.813354
260.416473	1530.362793	4040.167725	2004.094360	18.875235
260.789459	1527.606079	4078.542725	2009.056519	18.873478
261.162354	1530.803955	4110.521484	2014.900879	18.765501
261.535278	1529.149902	4134.229980	2020.193848	18.849476
261.908142	1529.370483	4159.372070	2021.517090	18.712788
262.280975	1526.613647	4174.479004	2027.030640	18.898884
262.653717	1530.583374	4190.909668	2027.361572	18.673582
263.026520	1530.914307	4200.062012	2031.221191	18.744068
263.399261	1525.952148	4207.781250	2031.441772	18.848688
263.771973	1526.834351	4219.911133	2033.757446	18.823196
264.144653	1523.084961	4213.735840	2030.890381	18.872959
264.517334	1525.290405	4186.388184	2029.567139	18.949953
264.889954	1525.952148	4137.316406	2022.178711	19.002579
265.262543	1526.393188	4074.020508	2014.900635	19.174995
265.635071	1529.480835	3996.830078	2007.071411	19.356424
266.007599	1528.047363	3930.997070	1999.572754	19.622774
266.380127	1524.408325	3887.770752	1997.036499	19.998127
266.752594	1526.503418	3869.796143	1995.492554	20.014109
267.125031	1525.952148	3869.355225	1991.522705	19.867285
267.497437	1520.879517	3888.873535	1993.176880	19.945040
267.869843	1518.674072	3911.148438	1994.831055	19.902281
268.242218	1521.430908	3946.104980	1998.029053	19.656174
268.614532	1521.872070	4017.010498	2001.888550	19.238070
268.986816	1519.004883	4098.060547	2007.622925	18.945618
269.359100	1521.871948	4188.152832	2012.585205	18.404411
269.731354	1522.092407	4275.819824	2018.208862	18.016178
270.103516	1523.084961	4346.615234	2019.311768	17.574694
270.475708	1518.784424	4407.816406	2025.266235	17.531195
270.847839	1522.092529	4464.496094	2031.442017	17.310659
271.219971	1526.944702	4510.920898	2038.057983	17.128599
271.592041	1529.921875	4535.180664	2040.042969	16.974281
271.964081	1532.237671	4553.485840	2043.461304	16.920942
272.336151	1532.237671	4574.547852	2043.792236	16.814676
272.708130	1531.686279	4593.956055	2050.849609	16.953547
273.080109	1530.804077	4614.908203	2050.959961	16.865705
273.452026	1530.252686	4644.680664	2050.739258	16.712109
273.823914	1533.560913	4678.535156	2053.165283	16.521738
274.195770	1535.435425	4714.483887	2055.812012	16.368942
274.567627	1536.979126	4748.447754	2057.135254	16.196831
274.939423	1537.420288	4784.065918	2065.405762	16.262493
275.311249	1538.853882	4807.002441	2065.185303	16.104881
275.682983	1536.979370	4827.954590	2067.059814	16.107094
276.054688	1534.443115	4832.806641	2065.515869	16.101099
276.426422	1536.648560	4815.052734	2061.215332	16.000673
276.798065	1537.530640	4785.389648	2057.796875	16.018745
277.169708	1537.199951	4757.159668	2056.142578	16.116432
277.541321	1539.515625	4739.075195	2053.716797	16.070999
277.912903	1539.074585	4743.375977	2055.922119	16.129805
278.284424	1539.736206	4756.277344	2053.165283	15.962150
278.655945	1535.656250	4777.670410	2057.135010	16.085024
279.027435	1538.523315	4811.523926	2054.157715	15.754180
279.398865	1537.971924	4872.173828	2060.884033	15.683277
279.770294	1538.412964	4936.683105	2064.633301	15.484948
280.141663	1538.082275	4996.009766	2068.492920	15.338975
280.513031	1541.500610	5055.887695	2074.778564	15.174138
280.884369	1538.523193	5092.829102	2078.637939	15.196068
281.255676	1540.177368	5132.637207	2083.269775	15.117563
281.626953	1538.412964	5166.601074	2086.247070	15.099386
281.998199	1539.736206	5202.770996	2091.871094	15.073154
282.369385	1540.508057	5250.519043	2093.525146	14.906076
282.740540	1542.603271	5308.743164	2100.141357	14.803967
283.111694	1540.397827	5362.334961	2112.822754	14.977351
283.482819	1541.059326	5430.263184	2120.541748	14.899770
283.853912	1542.382813	5511.203613	2131.458984	14.842599
284.224945	1538.743774	5583.652832	2142.155518	14.917807
284.595978	1542.272461	5653.455566	2154.836914	14.899956
284.966980	1541.941650	5715.318359	2162.225098	14.862866
285.337952	1537.861450	5756.670410	2169.502930	14.972033
285.708893	1539.405273	5777.953613	2175.678223	15.011577
286.079803	1540.949097	5798.574219	2186.154053	15.154105
286.450684	1543.154785	5811.917480	2185.271729	15.042226
286.821533	1537.861572	5818.423340	2194.093506	15.330510
287.192322	1536.097412	5819.305176	2194.203857	15.364802
287.563110	1538.082275	5831.985840	2200.709961	15.431826
287.933868	1538.854126	5849.850098	2207.657227	15.513887
288.304596	1538.523315	5884.034668	2212.068115	15.499783
288.675262	1538.743896	5930.018555	2220.669189	15.529098
289.045929	1537.641113	5962.328613	2227.616699	15.593770
289.416565	1536.869141	5990.999023	2234.784424	15.668948
289.787170	1538.302734	5998.938477	2235.666748	15.633736
290.157745	1535.545898	6001.916016	2244.819336	15.880310
290.528259	1536.317749	5993.204102	2244.378174	15.886886
290.898773	1539.736084	6004.672852	2245.480957	15.806381
291.269226	1537.751221	6002.908691	2248.237793	15.911793
291.639679	1538.192261	5995.741211	2251.325439	15.998325
292.010101	1540.397827	6016.803223	2262.021973	16.120617
292.380463	1537.199829	6050.877441	2264.778564	16.119421
292.750824	1539.625854	6085.503418	2273.490234	16.143515
293.121155	1537.640869	6131.597168	2286.833252	16.308218
293.491455	1534.884155	6201.399414	2292.787842	16.241322
293.861725	1532.458130	6279.141602	2302.050781	16.213270
294.231964	1532.458130	6366.808594	2311.975342	16.124548
294.602142	1535.766235	6463.296875	2321.458740	15.944954
294.972321	1533.009399	6543.686035	2332.155029	15.948856
295.342468	1527.716309	6605.217773	2338.881592	15.975678
295.712555	1525.731445	6647.011230	2351.121826	16.116877
296.082672	1529.370483	6671.602051	2358.399658	16.121973
296.452728	1529.811523	6675.351074	2363.582520	16.203762
296.822693	1528.378052	6675.020020	2365.346680	16.262421
297.192657	1527.495850	6668.844727	2366.118652	16.311338
297.562622	1525.510986	6691.009766	2371.852783	16.384512
297.932556	1531.355469	6707.330566	2374.499268	16.289564
298.302460	1530.693848	6710.307129	2380.013184	16.397350
298.672333	1529.260376	6708.653320	2380.454102	16.434237
299.042145	1529.260376	6706.778809	2380.013184	16.431671
299.411957	1527.716553	6705.897461	2378.910645	16.438091
299.781677	1527.716553	6663.441406	2373.507324	16.468771
300.151428	1527.496094	6619.552734	2367.221680	16.490892
300.521149	1524.629028	6556.917969	2358.620361	16.572803
300.890839	1525.842041	6491.747559	2347.923828	16.554520
301.260468	1526.503662	6415.769531	2343.292480	16.705757
301.630096	1525.621338	6328.434570	2334.691162	16.845747
301.999695	1525.290527	6236.907715	2326.089844	16.996273
302.369232	1523.526245	6126.966309	2318.591309	17.271107
302.738739	1525.952148	6024.302246	2312.305908	17.480938
303.108246	1529.922119	5926.270020	2301.388916	17.547903
303.477692	1530.363159	5852.166504	2289.589844	17.567358
303.847137	1526.724121	5775.858398	2280.216797	17.732851
304.216553	1530.363037	5724.691406	2270.181885	17.638554
304.585876	1531.465820	5688.742188	2266.432617	17.679047
304.955231	1535.215088	5666.687988	2265.440186	17.674692
305.324493	1534.443115	5638.126953	2261.911377	17.727201
305.693787	1530.252686	5612.212891	2258.272217	17.835047
306.063049	1530.032227	5607.581055	2254.743408	17.773207
306.432251	1528.708740	5606.588379	2258.162109	17.888056
306.801422	1529.260132	5598.097656	2254.302490	17.819399
307.170593	1532.568481	5595.450684	2252.648438	17.723377
307.539673	1528.819092	5608.573730	2252.207275	17.731169
307.908783	1531.575928	5615.080078	2256.397461	17.749989
308.277832	1531.355347	5644.522949	2259.926270	17.713135
308.646851	1534.773926	5681.133301	2264.999023	17.611235
309.015839	1536.207520	5715.649414	2271.505127	17.593201
309.384796	1538.082153	5746.415039	2278.121582	17.585096
309.753723	1535.766357	5771.998047	2282.863281	17.635885
310.122620	1533.891724	5793.611816	2285.840576	17.652540
310.491486	1532.899292	5812.357422	2282.532471	17.517012
310.860352	1530.914307	5821.179199	2285.509521	17.588547
311.229126	1534.332886	5826.031250	2282.752686	17.438780
311.597931	1529.701416	5843.123535	2284.737549	17.504343
311.966675	1526.613892	5869.699219	2289.259033	17.559984
312.335388	1526.834351	5896.274414	2293.890381	17.555019
312.704071	1522.974854	5922.739746	2297.529297	17.604452
313.072723	1524.959717	5931.230957	2298.632324	17.558441
313.441345	1523.526245	5931.341309	2300.506592	17.627337
313.809875	1523.195313	5911.823242	2300.617188	17.714462
314.178436	1523.195190	5885.688477	2292.897949	17.643644
314.546967	1521.982178	5851.614258	2291.464355	17.772463
314.915466	1519.446045	5811.254883	2288.266602	17.913673
315.283936	1523.967163	5773.100586	2284.517334	17.898949
315.652374	1523.195557	5733.402344	2280.767822	17.993706
316.020752	1523.416016	5692.822266	2274.482422	18.013750
316.389130	1525.842041	5654.116699	2268.527832	17.990223
316.757416	1525.621460	5628.202637	2260.367676	17.909365
