Jaz Data File
++++++++++++++++++++++++++++++++++++
Date: Fri Jun 21 03:16:07 2019
User: jaz
Dark Spectrum Present: Yes
Reference Spectrum Present: Yes
Processed Spectrum Present: Yes
Spectrometers: JAZA3541
Integration Time (usec): 119000 (JAZA3541)
Spectra Averaged: 1 (JAZA3541)
Boxcar Smoothing: 10 (JAZA3541)
Correct for Electrical Dark: No (JAZA3541)
Strobe/Lamp Enabled: Yes (JAZA3541)
Correct for Detector Non-linearity: No (JAZA3541)
Correct for Stray Light: No (JAZA3541)
Number of Pixels in Processed Spectrum: 2048
>>>>>Begin Processed Spectral Data<<<<<
W	D	R	S	P
190.543274	0.000000	0.000000	0.000000	0.000000
190.921555	0.000000	0.000000	0.000000	0.000000
191.299805	1558.482544	1405.644653	1704.373169	-95.454491
191.678024	1533.009521	1440.380615	1734.477539	-217.500153
192.056229	1539.956665	1535.325317	1748.371948	-4500.100098
192.434387	1519.115234	1551.535278	1720.583252	621.430420
192.812531	1604.796997	1597.849854	1667.321533	-900.003540
193.190659	1556.166748	1542.272461	1746.056152	-1366.672485
193.568741	1623.322754	1530.693848	1713.635986	-97.500053
193.946793	0.000000	0.000000	0.000000	0.000000
194.324829	1410.165894	1403.770142	1580.867920	-2668.990723
194.702835	1483.938232	1477.322021	1663.572388	-2715.060791
195.080811	1555.725708	1551.645752	1747.710327	-4705.556152
195.458755	1552.307251	1560.467407	1748.702759	2406.761719
195.836685	1553.520386	1565.540039	1751.569702	1647.712402
196.214569	1554.953857	1568.627808	1751.680054	1438.693237
196.592422	1551.425171	1571.164063	1751.239014	1012.285034
196.970261	1549.219727	1570.833130	1757.303955	962.755493
197.348068	1548.999146	1571.274170	1760.391724	949.011658
197.725861	1545.690796	1573.810425	1761.494263	767.447754
198.103622	1539.625854	1573.589844	1759.950562	648.700928
198.481323	1540.287598	1569.399536	1766.015381	775.378723
198.859039	1539.846436	1568.958374	1764.581787	771.969727
199.236694	1536.758789	1568.296631	1760.832642	710.492004
199.614334	1539.295166	1566.201660	1759.840088	819.671692
199.991959	1540.728760	1571.604858	1754.877930	693.575867
200.369553	1537.751465	1570.502075	1751.569946	652.868713
200.747101	1536.759033	1571.935669	1750.908325	608.782776
201.124619	1535.215210	1570.502197	1750.467285	610.004089
201.502136	1531.796631	1571.274048	1749.695068	551.957153
201.879623	1529.922119	1568.517334	1749.033691	567.716919
202.257065	1525.621216	1569.730225	1750.356934	509.500732
202.634476	1525.621216	1573.589600	1748.261475	464.139587
203.011871	1524.187744	1573.258911	1750.136108	460.450348
203.389221	1524.408203	1571.715088	1751.238892	479.487701
203.766571	1523.415649	1570.722656	1748.592285	475.990021
204.143875	1523.305542	1567.635010	1748.482178	507.961517
204.521164	1526.613770	1564.878296	1750.577393	585.303528
204.898392	1524.408203	1563.444702	1746.828125	569.774231
205.275620	1523.856812	1563.665405	1742.637695	549.582031
205.652817	1524.297852	1562.783081	1741.424683	564.182251
206.029984	1529.370483	1566.422241	1739.880981	568.152527
206.407135	1528.378052	1568.848267	1736.131714	513.349548
206.784225	1530.473389	1569.950928	1733.595215	514.525024
207.161301	1530.252808	1570.281616	1735.359619	512.398010
207.538376	1528.929443	1571.274170	1735.028687	486.717621
207.915405	1529.260376	1568.517456	1738.998291	534.267761
208.292404	1529.480835	1568.737671	1739.439697	534.833862
208.669373	1525.952148	1570.833008	1738.888550	474.448151
209.046310	1524.628784	1571.053589	1736.572754	456.531738
209.423218	1528.267822	1569.509644	1739.660400	512.568481
209.800095	1530.032227	1570.612549	1740.322144	518.206604
210.176956	1530.032227	1570.833130	1738.778320	511.621246
210.553787	1531.686279	1566.201660	1742.196777	609.903442
210.930603	1535.435425	1566.091553	1741.865845	673.374084
211.307358	1536.648438	1565.760620	1741.645264	704.161682
211.684113	1538.412842	1570.391968	1740.652710	632.412109
212.060837	1534.773804	1573.920776	1743.630249	533.518738
212.437531	1533.340210	1574.802856	1742.196655	503.721924
212.814178	1532.458130	1578.772705	1744.291626	457.379761
213.190826	1532.788940	1580.426758	1743.188965	441.665955
213.567413	1530.914307	1580.095947	1740.763184	426.681335
213.943985	1528.267822	1576.015869	1740.211670	443.879608
214.320541	1528.488281	1577.669800	1739.439697	428.924164
214.697052	1527.716431	1577.228760	1744.071289	436.971680
215.073563	1529.591064	1581.198486	1746.387085	420.086914
215.449997	1529.921875	1582.852661	1747.489990	411.042664
215.826431	1528.708862	1588.586670	1744.071411	359.670074
216.202850	1529.370483	1590.792236	1745.174072	351.347168
216.579224	1533.119751	1588.807495	1740.542603	372.474854
216.955582	1533.560791	1588.586914	1741.645508	378.156250
217.331894	1531.135010	1586.932861	1739.439941	373.320709
217.708191	1532.017090	1588.035400	1737.785889	367.324188
218.084442	1537.420532	1591.674438	1737.234375	368.293915
218.460678	1534.443115	1598.180420	1734.698120	314.188080
218.836899	1532.678711	1603.694214	1733.484985	282.764008
219.213074	1532.127563	1606.892090	1734.477539	270.649719
219.589233	1531.024658	1605.348389	1736.682861	276.705963
219.965347	1533.891846	1609.869385	1734.587769	264.151642
220.341431	1535.987061	1615.713867	1734.367188	248.824875
220.717499	1535.435669	1614.721558	1733.926147	250.347794
221.093552	1534.002075	1619.242554	1735.359741	236.223053
221.469543	1535.104858	1625.197510	1733.375000	220.073593
221.845535	1536.207642	1630.380249	1737.455200	213.700745
222.221466	1537.310303	1634.350098	1736.793335	205.568268
222.597397	1535.435547	1642.069214	1734.587769	186.762985
222.973297	1537.420532	1647.362183	1732.382446	177.332169
223.349167	1536.979492	1655.853271	1733.595581	165.399033
223.725006	1537.530640	1662.359375	1733.264648	156.802048
224.100800	1538.082153	1671.952881	1732.933838	145.552124
224.476578	1538.854004	1682.097900	1738.998901	139.723160
224.852325	1537.971680	1701.726563	1740.101563	123.434418
225.228058	1541.279907	1724.332397	1740.101563	108.614555
225.603760	1540.838867	1750.246460	1738.998901	94.628868
225.979416	1536.317749	1779.248169	1742.086548	84.702774
226.355057	1535.325195	1813.322388	1743.960938	75.049583
226.730652	1533.671143	1852.028076	1746.166626	66.747559
227.106232	1534.773926	1886.543335	1749.585205	61.065937
227.481796	1531.575928	1920.286865	1751.239014	56.510651
227.857315	1528.378052	1946.972900	1752.782715	53.609035
228.232788	1528.819214	1971.673950	1758.516968	51.867516
228.608246	1531.465698	1999.903687	1759.840210	48.752346
228.983704	1534.112305	2022.950684	1762.486816	46.717796
229.359100	1531.575928	2040.263428	1772.742188	47.409512
229.734482	1528.378052	2061.546143	1772.962769	45.873848
230.109833	1529.039795	2075.881592	1777.484009	45.432556
230.485153	1528.488403	2087.349609	1778.035400	44.652767
230.860443	1521.541260	2101.575195	1777.484009	44.125477
231.235703	1520.879517	2121.534668	1775.278442	42.353573
231.610931	1519.225464	2137.523926	1779.137817	42.036713
231.986145	1517.240479	2152.079834	1781.894531	41.688351
232.361313	1516.468506	2165.532959	1780.240723	40.638832
232.736465	1519.115112	2169.833984	1779.027710	39.942379
233.111572	1517.571289	2172.921387	1782.115479	40.366848
233.486664	1518.894653	2171.708252	1786.305786	40.962860
233.861725	1517.350586	2169.944092	1787.518555	41.399120
234.236755	1520.107422	2156.931885	1786.084961	41.766224
234.611771	1522.313110	2138.516357	1782.666626	42.251240
234.986740	1523.415771	2132.671875	1781.894897	42.425365
235.361679	1526.062256	2128.922607	1781.343506	42.345005
235.736588	1526.393188	2124.952881	1781.453735	42.612381
236.111496	1527.936890	2122.196045	1780.791992	42.549637
236.486343	1528.819092	2122.857666	1779.468750	42.194172
236.861160	1527.716309	2128.371582	1781.233032	42.206692
237.235962	1529.370483	2138.626465	1780.351196	41.194626
237.610733	1532.016968	2152.962158	1783.548950	40.507919
237.985474	1532.016968	2177.111572	1786.085205	39.384647
238.360199	1533.009521	2207.988037	1789.393188	37.983974
238.734879	1534.994385	2240.628662	1796.781494	37.099545
239.109543	1532.347900	2281.539551	1805.713501	36.488075
239.484177	1533.450562	2334.360352	1812.109131	34.792755
239.858749	1535.325195	2397.105469	1818.064209	32.808712
240.233322	1530.804199	2464.923096	1826.444946	31.649157
240.607864	1528.709106	2528.660889	1838.464600	30.977043
240.982391	1529.370728	2583.025391	1843.537231	29.816837
241.356857	1527.826904	2627.685547	1846.073242	28.935204
241.731308	1533.340454	2665.288574	1848.058228	27.803198
242.105728	1529.150024	2699.583252	1856.880005	28.000742
242.480118	1528.708984	2736.414307	1861.511475	27.556597
242.854492	1529.480957	2770.378418	1864.599121	27.006113
243.228836	1527.606323	2818.898193	1871.987549	26.669512
243.603134	1531.245361	2883.187256	1879.927246	25.791189
243.977402	1529.150146	2971.956787	1890.734009	25.061146
244.351654	1526.724121	3079.692871	1904.959106	24.355608
244.725861	1527.495972	3195.809814	1915.214233	23.240128
245.100067	1529.260376	3309.391113	1926.903442	22.337858
245.474213	1530.693970	3406.872070	1933.519775	21.470552
245.848343	1529.150146	3476.453857	1940.356445	21.116701
246.222443	1528.378174	3532.362061	1949.398804	21.009182
246.596512	1530.252808	3565.884766	1951.163086	20.677130
246.970566	1530.804077	3581.543457	1950.942383	20.487164
247.344574	1531.134888	3573.714355	1946.752075	20.347664
247.718567	1528.157471	3552.431641	1943.223633	20.504444
248.092529	1533.561035	3529.936035	1941.348999	20.426420
248.466431	1533.891724	3510.307617	1939.033081	20.498791
248.840332	1534.002197	3506.668945	1939.584473	20.560101
249.214203	1533.891846	3516.923828	1942.451660	20.602785
249.588043	1529.811768	3538.868408	1944.987915	20.665228
249.961838	1525.952148	3566.656982	1945.649536	20.566296
250.335617	1524.629028	3592.460938	1950.722046	20.605785
250.709381	1522.423584	3603.377930	1950.501465	20.571228
251.083084	1521.320801	3591.468262	1947.965454	20.609385
251.456787	1521.982422	3561.474365	1943.223633	20.654222
251.830460	1521.762085	3509.425293	1937.048340	20.893190
252.204071	1522.203125	3429.367188	1929.108765	21.335640
252.577667	1521.761963	3337.069092	1922.602905	22.081163
252.951248	1521.541260	3250.725830	1913.449951	22.664364
253.324799	1517.020142	3177.835449	1904.077026	23.305233
253.698303	1516.248169	3130.969482	1899.445557	23.731487
254.071793	1518.233032	3092.374268	1896.026733	23.999987
254.445236	1520.769287	3078.479736	1894.813843	24.012457
254.818665	1521.541260	3072.855957	1895.806396	24.125675
255.192062	1521.320801	3089.396729	1902.973755	24.338934
255.565430	1525.511108	3120.272949	1904.076660	23.738062
255.938782	1522.092651	3155.891113	1908.597900	23.656849
256.312103	1523.636475	3214.445801	1912.457397	22.996143
256.685364	1522.202881	3288.438721	1919.735352	22.507326
257.058594	1520.107666	3374.341064	1930.100830	22.111195
257.431793	1523.195435	3472.593750	1941.679688	21.467356
257.804993	1527.716431	3583.969238	1954.912354	20.775455
258.178162	1529.150024	3682.222412	1961.528809	20.081945
258.551270	1530.032227	3768.455322	1971.784180	19.734962
258.924377	1529.370483	3840.132080	1976.084839	19.331909
259.297485	1525.290405	3899.569580	1983.252563	19.288471
259.670502	1529.149780	3942.906982	1980.826660	18.712605
260.043518	1533.891602	3992.750732	1984.024780	18.306587
260.416473	1530.362793	4040.167725	1986.891724	18.189817
260.789459	1527.606079	4078.542725	1990.640991	18.151566
261.162354	1530.803955	4110.521484	1996.485352	18.051643
261.535278	1529.149902	4134.229980	2002.660522	18.176432
261.908142	1529.370483	4159.372070	2004.425049	18.062901
262.280975	1526.613647	4174.479004	2007.402344	18.157597
262.653717	1530.583374	4190.909668	2007.402344	17.923326
263.026520	1530.914307	4200.062012	2006.188965	17.806232
263.399261	1525.952148	4207.781250	2009.276611	18.022194
263.771973	1526.834351	4219.911133	2007.843140	17.860939
264.144653	1523.084961	4213.735840	2007.071411	17.987709
264.517334	1525.290405	4186.388184	2004.535156	18.009289
264.889954	1525.952148	4137.316406	1997.698242	18.065121
265.262543	1526.393188	4074.020508	1988.766235	18.149162
265.635071	1529.480835	3996.830078	1978.952026	18.216764
266.007599	1528.047363	3930.997070	1976.305664	18.654503
266.380127	1524.408325	3887.770752	1971.233032	18.906315
266.752594	1526.503418	3869.796143	1972.887085	19.049419
267.125031	1525.952148	3869.355225	1969.689209	18.935585
267.497437	1520.879517	3888.873535	1976.746704	19.251196
267.869843	1518.674072	3911.148438	1976.084961	19.118738
268.242218	1521.430908	3946.104980	1982.150146	19.001286
268.614532	1521.872070	4017.010498	1990.089478	18.765188
268.986816	1519.004883	4098.060547	1995.823853	18.488123
269.359100	1521.871948	4188.152832	2005.417603	18.135586
269.731354	1522.092407	4275.819824	2012.254517	17.799950
270.103516	1523.084961	4346.615234	2020.083740	17.602036
270.475708	1518.784424	4407.816406	2030.118286	17.699142
270.847839	1522.092529	4464.496094	2033.095825	17.366867
271.219971	1526.944702	4510.920898	2039.822388	17.187727
271.592041	1529.921875	4535.180664	2046.107910	17.176092
271.964081	1532.237671	4553.485840	2047.651733	17.059641
272.336151	1532.237671	4574.547852	2052.393311	17.097391
272.708130	1531.686279	4593.956055	2051.290771	16.967953
273.080109	1530.804077	4614.908203	2054.708984	16.987265
273.452026	1530.252686	4644.680664	2058.789063	16.970577
273.823914	1533.560913	4678.535156	2060.663818	16.760166
274.195770	1535.435425	4714.483887	2065.736328	16.681122
274.567627	1536.979126	4748.447754	2070.036865	16.598566
274.939423	1537.420288	4784.065918	2074.227295	16.534204
275.311249	1538.853882	4807.002441	2074.447998	16.388304
275.682983	1536.979370	4827.954590	2081.946533	16.559444
276.054688	1534.443115	4832.806641	2081.615479	16.589207
276.426422	1536.648560	4815.052734	2079.630859	16.562395
276.798065	1537.530640	4785.389648	2080.292480	16.711374
277.169708	1537.199951	4757.159668	2070.919434	16.575346
277.541321	1539.515625	4739.075195	2067.169922	16.491467
277.912903	1539.074585	4743.375977	2067.500977	16.491158
278.284424	1539.736206	4756.277344	2064.633789	16.318697
278.655945	1535.656250	4777.670410	2069.926758	16.479586
279.027435	1538.523315	4811.523926	2073.896484	16.357260
279.398865	1537.971924	4872.173828	2079.961426	16.255449
279.770294	1538.412964	4936.683105	2089.665527	16.221565
280.141663	1538.082275	4996.009766	2092.863525	16.043751
280.513031	1541.500610	5055.887695	2104.331787	16.015059
280.884369	1538.523193	5092.829102	2110.065918	16.080290
281.255676	1540.177368	5132.637207	2112.933105	15.943274
281.626953	1538.412964	5166.601074	2116.131104	15.923049
281.998199	1539.736206	5202.770996	2119.439453	15.825765
282.369385	1540.508057	5250.519043	2122.857910	15.696715
282.740540	1542.603271	5308.743164	2131.789795	15.644308
283.111694	1540.397827	5362.334961	2143.147949	15.770802
283.482819	1541.059326	5430.263184	2149.212891	15.636968
283.853912	1542.382813	5511.203613	2155.498291	15.448303
284.224945	1538.743774	5583.652832	2163.327637	15.441234
284.595978	1542.272461	5653.455566	2172.700928	15.334478
284.966980	1541.941650	5715.318359	2178.435303	15.251286
285.337952	1537.861450	5756.670410	2180.420166	15.230808
285.708893	1539.405273	5777.953613	2185.051514	15.232721
286.079803	1540.949097	5798.574219	2193.211670	15.319869
286.450684	1543.154785	5811.917480	2195.086426	15.272145
286.821533	1537.861572	5818.423340	2196.740234	15.392342
287.192322	1536.097412	5819.305176	2195.527100	15.395696
287.563110	1538.082275	5831.985840	2198.283936	15.375326
287.933868	1538.854126	5849.850098	2205.561768	15.465281
288.304596	1538.523315	5884.034668	2213.170654	15.525155
288.675262	1538.743896	5930.018555	2218.684326	15.483897
289.045929	1537.641113	5962.328613	2230.042480	15.648594
289.416565	1536.869141	5990.999023	2236.658936	15.711033
289.787170	1538.302734	5998.938477	2239.856934	15.727673
290.157745	1535.545898	6001.916016	2239.195557	15.754396
290.528259	1536.317749	5993.204102	2236.769287	15.716164
290.898773	1539.736084	6004.672852	2237.430908	15.626086
291.269226	1537.751221	6002.908691	2241.400391	15.758665
291.639679	1538.192261	5995.741211	2247.575928	15.914209
292.010101	1540.397827	6016.803223	2252.648193	15.911213
292.380463	1537.199829	6050.877441	2259.374756	15.999701
292.750824	1539.625854	6085.503418	2271.504883	16.099840
293.121155	1537.640869	6131.597168	2283.965576	16.245796
293.491455	1534.884155	6201.399414	2289.258789	16.165695
293.861725	1532.458130	6279.141602	2300.837402	16.187708
294.231964	1532.458130	6366.808594	2317.047607	16.229469
294.602142	1535.766235	6463.296875	2327.192627	16.061317
294.972321	1533.009399	6543.686035	2340.866699	16.122719
295.342468	1527.716309	6605.217773	2348.365234	16.162457
295.712555	1525.731445	6647.011230	2350.239746	16.099653
296.082672	1529.370483	6671.602051	2351.342529	15.984735
296.452728	1529.811523	6675.351074	2356.304688	16.062323
296.822693	1528.378052	6675.020020	2355.973877	16.080307
297.192657	1527.495850	6668.844727	2357.076416	16.135466
297.562622	1525.510986	6691.009766	2365.457520	16.260704
297.932556	1531.355469	6707.330566	2374.719971	16.293829
298.302460	1530.693848	6710.307129	2380.343750	16.403732
298.672333	1529.260376	6708.653320	2376.373779	16.355457
299.042145	1529.260376	6706.778809	2372.514404	16.286837
299.411957	1527.716553	6705.897461	2368.654785	16.240032
299.781677	1527.716553	6663.441406	2363.912842	16.281954
300.151428	1527.496094	6619.552734	2360.494873	16.358789
300.521149	1524.629028	6556.917969	2349.577637	16.393108
300.890839	1525.842041	6491.747559	2341.748291	16.430161
301.260468	1526.503662	6415.769531	2344.284668	16.726049
301.630096	1525.621338	6328.434570	2331.934326	16.788347
301.999695	1525.290527	6236.907715	2324.215332	16.956488
302.369232	1523.526245	6126.966309	2313.188477	17.153742
302.738739	1525.952148	6024.302246	2300.286377	17.213739
303.108246	1529.922119	5926.270020	2289.038574	17.266979
303.477692	1530.363159	5852.166504	2282.532471	17.404062
303.847137	1526.724121	5775.858398	2275.916016	17.631636
304.216553	1530.363037	5724.691406	2266.322266	17.546534
304.585876	1531.465820	5688.742188	2263.234863	17.602127
304.955231	1535.215088	5666.687988	2261.139404	17.570595
305.324493	1534.443115	5638.126953	2254.302734	17.541792
305.693787	1530.252686	5612.212891	2250.553467	17.645952
306.063049	1530.032227	5607.581055	2248.016846	17.608240
306.432251	1528.708740	5606.588379	2250.553223	17.701466
306.801422	1529.260132	5598.097656	2254.082031	17.813980
307.170593	1532.568481	5595.450684	2255.736328	17.799379
307.539673	1528.819092	5608.573730	2260.257324	17.928486
307.908783	1531.575928	5615.080078	2258.052002	17.790506
308.277832	1531.355347	5644.522949	2267.094238	17.887403
308.646851	1534.773926	5681.133301	2273.710449	17.821333
309.015839	1536.207520	5715.649414	2268.307129	17.516684
309.384796	1538.082153	5746.415039	2271.615234	17.430490
309.753723	1535.766357	5771.998047	2268.307129	17.292274
310.122620	1533.891724	5793.611816	2273.158936	17.354830
310.491486	1532.899292	5812.357422	2278.783203	17.429401
310.860352	1530.914307	5821.179199	2285.399658	17.585987
311.229126	1534.332886	5826.031250	2288.707520	17.577532
311.597931	1529.701416	5843.123535	2287.494629	17.568260
311.966675	1526.613892	5869.699219	2292.236328	17.628538
312.335388	1526.834351	5896.274414	2294.772217	17.575201
312.704071	1522.974854	5922.739746	2299.514160	17.649565
313.072723	1524.959717	5931.230957	2298.411377	17.553427
313.441345	1523.526245	5931.341309	2296.867676	17.544781
313.809875	1523.195313	5911.823242	2296.977783	17.631535
314.178436	1523.195190	5885.688477	2296.867920	17.734646
314.546967	1521.982178	5851.614258	2292.236328	17.790293
314.915466	1519.446045	5811.254883	2287.053711	17.885412
315.283936	1523.967163	5773.100586	2282.201904	17.844456
315.652374	1523.195557	5733.402344	2281.208984	18.004185
316.020752	1523.416016	5692.822266	2276.577637	18.064001
316.389130	1525.842041	5654.116699	2275.584961	18.161169
316.757416	1525.621460	5628.202637	2277.018311	18.315222
