Jaz Data File
++++++++++++++++++++++++++++++++++++
Date: Thu Sep 26 04:32:32 2019
User: jaz
Dark Spectrum Present: Yes
Reference Spectrum Present: Yes
Processed Spectrum Present: Yes
Spectrometers: JAZA3541
Integration Time (usec): 100000 (JAZA3541)
Spectra Averaged: 1 (JAZA3541)
Boxcar Smoothing: 10 (JAZA3541)
Correct for Electrical Dark: No (JAZA3541)
Strobe/Lamp Enabled: Yes (JAZA3541)
Correct for Detector Non-linearity: No (JAZA3541)
Correct for Stray Light: No (JAZA3541)
Number of Pixels in Processed Spectrum: 2048
>>>>>Begin Processed Spectral Data<<<<<
W	D	R	S	P
190.543274	0.000000	0.000000	0.000000	0.000000
190.921555	0.000000	0.000000	0.000000	0.000000
191.299805	1296.805664	1336.172974	1162.493652	-341.176514
191.678024	1229.649658	1322.278564	1162.493652	-72.500053
192.056229	1345.435913	1313.015747	1169.440796	542.856934
192.434387	1331.541504	1278.279907	1169.440796	304.348206
192.812531	1303.752808	1324.594360	1185.650879	-566.665710
193.190659	1310.699951	1296.805664	1218.071045	666.669006
193.568741	1319.962891	1359.330200	1150.915039	-429.411743
193.946793	0.000000	0.000000	0.000000	0.000000
194.324829	1207.815674	1211.785522	1081.774170	-3174.969971
194.702835	1271.994385	1273.317627	1138.895386	-10058.551758
195.080811	1337.606445	1335.070313	1196.237061	5574.210449
195.458755	1337.827148	1332.203125	1194.362305	2550.928955
195.836685	1338.268188	1331.541626	1194.031494	2144.285400
196.214569	1339.811890	1336.172974	1193.259644	4027.359863
196.592422	1341.907104	1340.032471	1193.369873	7923.533203
196.970261	1342.679077	1342.127686	1193.921143	26978.636719
197.348068	1343.781860	1343.120117	1192.818481	22812.986328
197.725861	1344.222900	1342.127563	1195.244507	7109.997070
198.103622	1343.561279	1338.157837	1193.921265	2769.345947
198.481323	1340.253052	1337.496216	1188.517822	5503.962891
198.859039	1337.937378	1335.290771	1187.194702	5695.696777
199.236694	1335.070313	1335.621460	1187.966675	-26690.431641
199.614334	1333.416138	1335.511230	1185.209839	-7073.973145
199.991959	1329.115479	1337.937134	1184.217285	-1642.528442
200.369553	1324.373657	1337.826904	1184.217407	-1041.802368
200.747101	1322.499023	1341.355835	1182.011963	-745.020203
201.124619	1320.514038	1341.576294	1183.555664	-650.255005
201.502136	1316.323608	1346.538452	1186.863892	-428.463959
201.879623	1313.677246	1349.736450	1185.761108	-354.739227
202.257065	1311.030640	1351.500854	1183.886475	-314.167267
202.634476	1309.927979	1352.934570	1183.445557	-294.100067
203.011871	1305.186279	1354.809082	1180.468140	-251.332321
203.389221	1303.091064	1361.866455	1185.540771	-199.999176
203.766571	1304.745117	1367.931519	1189.731079	-182.023407
204.143875	1300.334229	1365.064331	1189.620728	-171.038666
204.521164	1296.254272	1365.284912	1191.715820	-151.437759
204.898392	1297.798096	1363.300049	1194.031738	-158.417191
205.275620	1298.459717	1368.703369	1193.700684	-149.136658
205.652817	1293.718018	1368.482910	1193.921265	-133.480774
206.029984	1293.607666	1372.673218	1191.274780	-129.427902
206.407135	1291.953613	1374.988892	1193.810913	-118.193977
206.784225	1292.394775	1374.437378	1191.826050	-122.581100
207.161301	1293.607910	1372.893555	1188.407593	-132.685196
207.538376	1298.570190	1373.555176	1186.422729	-149.559891
207.915405	1302.209229	1370.798462	1190.943970	-162.219711
208.292404	1303.422119	1370.798584	1188.517822	-170.540710
208.669373	1305.406860	1366.718506	1185.650879	-195.323380
209.046310	1302.319336	1363.961670	1183.776245	-192.307922
209.423218	1303.863159	1361.645874	1178.372803	-217.176285
209.800095	1305.737793	1357.124756	1178.593384	-247.425415
210.176956	1308.715210	1353.265137	1180.578369	-287.625244
210.553787	1308.163818	1355.911743	1181.901611	-264.434967
210.930603	1309.597412	1356.242554	1183.555664	-270.214111
211.307358	1315.221313	1353.485718	1179.144775	-355.621735
211.684113	1317.316406	1349.846680	1176.057251	-434.239075
212.060837	1316.985596	1348.413086	1176.939331	-445.617096
212.437531	1316.765015	1350.839233	1176.277710	-412.297943
212.814178	1314.008179	1354.037109	1173.631348	-350.688446
213.190826	1312.574585	1351.280273	1175.505981	-354.130371
213.567413	1313.125977	1352.383057	1176.277832	-348.594818
213.943985	1310.258789	1357.345337	1178.924438	-278.921173
214.320541	1309.266479	1357.124756	1177.270386	-275.806213
214.697052	1307.612305	1361.315186	1181.901733	-234.085342
215.073563	1309.266357	1363.300049	1184.217407	-231.427734
215.449997	1303.863159	1360.874023	1185.981812	-206.769974
215.826431	1301.326904	1362.086914	1185.320068	-190.926300
216.202850	1300.334351	1364.954102	1183.996704	-180.034195
216.579224	1298.459717	1369.695923	1185.871338	-158.049377
216.955582	1300.885742	1374.989014	1187.415161	-153.124924
217.331894	1300.554932	1374.217041	1193.811035	-144.910187
217.708191	1300.003418	1376.863647	1195.685669	-135.723969
218.084442	1300.113770	1383.480103	1191.715820	-130.026047
218.460678	1296.915771	1384.141602	1193.259644	-118.836502
218.836899	1295.041260	1385.685303	1195.575195	-109.732597
219.213074	1292.615234	1387.339478	1200.868408	-96.856750
219.589233	1294.269287	1392.191650	1202.632813	-93.580742
219.965347	1296.805542	1398.697510	1205.610107	-89.502083
220.341431	1295.592529	1399.359131	1204.838257	-87.459999
220.717499	1296.254150	1400.241455	1209.800415	-83.138741
221.093552	1295.041260	1402.336548	1212.888062	-76.567390
221.469543	1299.011108	1407.078247	1212.777954	-79.795906
221.845535	1302.980835	1407.409058	1217.188843	-82.154030
222.221466	1305.296631	1411.709595	1222.371704	-77.927467
222.597397	1305.186279	1417.884766	1222.702515	-73.189774
222.973297	1302.760376	1426.706543	1222.922974	-64.412964
223.349167	1300.554932	1437.403076	1225.679810	-54.714020
223.725006	1297.467285	1446.996826	1223.584595	-49.410095
224.100800	1295.041260	1454.385010	1228.436523	-41.799404
224.476578	1295.372070	1465.081543	1229.318726	-38.921425
224.852325	1297.577515	1475.778076	1231.854980	-36.881218
225.228058	1298.680298	1495.847778	1231.193359	-34.228230
225.603760	1297.577637	1523.195313	1232.847412	-28.690228
225.979416	1295.261963	1552.086792	1243.213135	-20.266275
226.355057	1295.372192	1590.351318	1246.631592	-16.523407
226.730652	1296.805664	1642.069214	1249.278320	-13.765526
227.106232	1296.915894	1691.912231	1253.137939	-11.083129
227.481796	1294.159180	1736.903687	1260.195313	-7.671211
227.857315	1292.946167	1778.145630	1264.936890	-5.772735
228.232788	1296.033813	1815.638184	1270.560791	-4.902388
228.608246	1296.695435	1848.058350	1271.001831	-4.660017
228.983704	1297.026245	1883.345459	1272.766235	-4.137680
229.359100	1297.577637	1916.206665	1277.287354	-3.279879
229.734482	1293.166748	1945.870117	1278.390015	-2.263928
230.109833	1290.189453	1973.768921	1278.169556	-1.758376
230.485153	1290.189331	1989.979126	1280.154541	-1.433972
230.860443	1289.527710	2012.585205	1285.888672	-0.503285
231.235703	1293.166748	2031.331421	1289.307251	-0.522850
231.610931	1293.607788	2055.481445	1295.041504	0.188183
231.986145	1293.056396	2079.300049	1299.121582	0.771413
232.361313	1290.189209	2098.708252	1302.539917	1.527572
232.736465	1287.983765	2121.313965	1307.281494	2.315736
233.111572	1285.888550	2134.656982	1314.008179	3.312992
233.486664	1288.865845	2141.052734	1320.403931	3.700841
233.861725	1290.409668	2141.604248	1321.286133	3.627427
234.236755	1292.284302	2138.957520	1322.719604	3.594693
234.611771	1296.474731	2120.873047	1327.130615	3.718577
234.986740	1298.900635	2101.023926	1326.468994	3.436923
235.361679	1299.782959	2083.710938	1323.601807	3.038398
235.736588	1298.570068	2073.235107	1326.248535	3.572959
236.111496	1297.908447	2069.375488	1328.674438	3.987985
236.486343	1298.459717	2071.139893	1330.438843	4.138727
236.861160	1301.106323	2071.250000	1333.636719	4.223938
237.235962	1300.334351	2079.961426	1338.819458	4.936348
237.610733	1302.760376	2089.996338	1349.295532	5.911208
237.985474	1301.437134	2106.978271	1363.851318	7.748106
238.360199	1300.665283	2140.501221	1378.076538	9.217426
238.734879	1301.767944	2177.662842	1389.985962	10.071758
239.109543	1300.334473	2227.616455	1405.424072	11.333079
239.484177	1304.635132	2281.650146	1425.934937	12.415347
239.858749	1310.810303	2350.680908	1447.658691	13.160136
240.233322	1311.361694	2434.047119	1475.998657	14.664568
240.607864	1313.126099	2511.899414	1502.353760	15.785108
240.982391	1314.559570	2592.618896	1533.340454	17.118210
241.356857	1316.213745	2651.063232	1555.946289	17.959518
241.731308	1315.000610	2704.435059	1577.559692	18.896832
242.105728	1317.977905	2744.684814	1594.872437	19.407948
242.480118	1312.354126	2785.926758	1612.185059	20.347212
242.854492	1310.479492	2835.880127	1635.011719	21.275213
243.228836	1309.045898	2893.442383	1659.161499	22.097727
243.603134	1312.905518	2957.290283	1683.972412	22.565697
243.977402	1312.023193	3046.721436	1716.833740	23.336079
244.351654	1310.920532	3168.241699	1762.486572	24.312759
244.725861	1310.810303	3315.235107	1810.014160	24.905092
245.100067	1311.912964	3466.970215	1865.811890	25.702286
245.474213	1311.361694	3603.377197	1915.214233	26.345917
245.848343	1316.985474	3710.341553	1957.227905	26.750824
246.222443	1318.198486	3794.700195	1990.971558	27.166267
246.596512	1318.419067	3855.019287	2016.885620	27.535542
246.970566	1321.286133	3892.181641	2034.419067	27.738697
247.344574	1320.845093	3904.862793	2043.792358	27.977646
247.718567	1317.206055	3891.740234	2045.336182	28.282015
248.092529	1318.749756	3859.430420	2041.366455	28.441854
248.466431	1315.441650	3833.075195	2035.962769	28.618982
248.840332	1313.236206	3807.051025	2026.148682	28.587225
249.214203	1311.030640	3809.476563	2027.471680	28.675468
249.588043	1313.787598	3825.797363	2031.992920	28.590864
249.961838	1310.038330	3853.696045	2044.674316	28.881086
250.335617	1313.677124	3886.888428	2058.789551	28.956518
250.709381	1313.456665	3901.664795	2065.074951	29.040104
251.083084	1318.198608	3899.569824	2066.398438	28.984591
251.456787	1314.780029	3882.367188	2060.443359	29.041403
251.830460	1316.434204	3829.656738	2048.423828	29.125538
252.204071	1313.456787	3746.069824	2020.965820	29.084324
252.577667	1310.038452	3638.995117	1991.633179	29.266098
252.951248	1310.369263	3513.615234	1951.494019	29.099098
253.324799	1308.604858	3406.099365	1910.803345	28.710371
253.698303	1305.737671	3326.152100	1877.501099	28.299314
254.071793	1305.296631	3267.817627	1853.792358	27.948528
254.445236	1304.083618	3233.853760	1839.677612	27.754290
254.818665	1300.113770	3219.959473	1829.973633	27.599087
255.192062	1300.003418	3219.077393	1828.870850	27.558470
255.565430	1300.444458	3243.888672	1837.913086	27.655470
255.938782	1301.878052	3283.365967	1851.697388	27.747801
256.312103	1304.745117	3340.266846	1864.268555	27.487963
256.685364	1306.730225	3419.442383	1888.528442	27.537979
257.058594	1304.965820	3518.357178	1914.111816	27.520935
257.431793	1302.098633	3646.714600	1952.155518	27.725517
257.804993	1302.760254	3790.178955	1998.029053	27.951418
258.178162	1299.672729	3928.240234	2040.594116	28.187269
258.551270	1298.128906	4052.517578	2081.835938	28.453030
258.924377	1294.379639	4145.587402	2120.100830	28.960402
259.297485	1293.938599	4222.999023	2144.801758	29.049013
259.670502	1293.056396	4286.625977	2162.555908	29.045576
260.043518	1295.151489	4346.063477	2183.176758	29.106878
260.416473	1298.569946	4394.473145	2200.379395	29.129122
260.789459	1297.026123	4449.830078	2216.369141	29.159536
261.162354	1297.246704	4497.467773	2231.145752	29.182327
261.535278	1298.349365	4541.796875	2244.929688	29.184389
261.908142	1298.790527	4576.092285	2257.941895	29.266495
262.280975	1301.216553	4595.279297	2268.858643	29.375340
262.653717	1302.870605	4609.834961	2278.452393	29.500826
263.026520	1300.113892	4627.809570	2278.562744	29.403194
263.399261	1297.357056	4643.688477	2280.437012	29.377840
263.771973	1296.915894	4654.495605	2282.863037	29.364819
264.144653	1298.239258	4653.502930	2287.825439	29.493544
264.517334	1301.106323	4633.103027	2283.083984	29.471149
264.889954	1302.208862	4586.678223	2272.387207	29.538361
265.262543	1305.627563	4506.179199	2251.215088	29.544516
265.635071	1308.053589	4405.610840	2213.281250	29.223921
266.007599	1311.802856	4310.224609	2177.111816	28.858812
266.380127	1312.133545	4240.201660	2143.478760	28.392277
266.752594	1315.882935	4205.575684	2118.887939	27.788593
267.125031	1315.000732	4197.084473	2110.948242	27.617085
267.497437	1313.236328	4212.963867	2111.058594	27.513697
267.869843	1316.544556	4239.098633	2108.742920	27.106371
268.242218	1313.567261	4277.473633	2111.168945	26.910490
268.614532	1311.913208	4335.697754	2123.188721	26.829805
268.986816	1312.354126	4430.973633	2143.809326	26.661001
269.359100	1311.471924	4539.150879	2172.701172	26.682617
269.731354	1310.038452	4652.510742	2193.542480	26.432652
270.103516	1311.030762	4749.219727	2214.714600	26.283716
270.475708	1311.361572	4830.049805	2229.380859	26.089815
270.847839	1314.890381	4902.499023	2251.435791	26.105005
271.219971	1318.419067	4961.053711	2264.006836	25.958897
271.592041	1320.403809	5006.596191	2272.938721	25.840618
271.964081	1321.065552	5036.369629	2272.938721	25.620329
272.336151	1316.434204	5064.048340	2276.908447	25.628952
272.708130	1316.654785	5090.182129	2278.011230	25.476334
273.080109	1313.015869	5107.385254	2274.592529	25.342199
273.452026	1311.582275	5141.238770	2277.900879	25.232513
273.823914	1310.369263	5176.085449	2281.650146	25.125509
274.195770	1310.369263	5215.893555	2294.000488	25.185638
274.567627	1309.376831	5261.987793	2296.647217	24.977678
274.939423	1310.700073	5304.332031	2304.035400	24.872982
275.311249	1312.243896	5345.464355	2312.305908	24.795620
275.682983	1310.479492	5376.120117	2320.466064	24.842003
276.054688	1309.707520	5401.151855	2325.428223	24.825480
276.426422	1307.943115	5403.577148	2317.598877	24.652002
276.798065	1312.243896	5370.495117	2304.917480	24.460625
277.169708	1313.236206	5325.172852	2288.045654	24.297729
277.541321	1317.757446	5277.536133	2281.870605	24.347652
277.912903	1316.985352	5267.832031	2270.732910	24.140333
278.284424	1316.764893	5279.741211	2275.144043	24.183317
278.655945	1315.882813	5301.685547	2279.995850	24.188679
279.027435	1312.574707	5332.010254	2291.794922	24.362133
279.398865	1310.920532	5391.226563	2307.564209	24.425709
279.770294	1307.502075	5467.424805	2336.786377	24.742870
280.141663	1310.810303	5539.763672	2354.209473	24.672752
280.513031	1313.015869	5615.631348	2375.161377	24.686045
280.884369	1315.993164	5680.912598	2396.333496	24.750523
281.255676	1314.559570	5725.462402	2410.669189	24.850006
281.626953	1313.787720	5763.727051	2426.327881	25.001244
281.998199	1316.654907	5805.189453	2440.663330	25.041767
282.369385	1313.346680	5856.245605	2464.151123	25.331940
282.740540	1313.236328	5915.572754	2482.125732	25.397739
283.111694	1311.802856	5983.280273	2501.202881	25.460896
283.482819	1310.479492	6070.064941	2524.580811	25.508553
283.853912	1314.559570	6165.339844	2552.700195	25.524567
284.224945	1315.441772	6257.858398	2590.192627	25.792057
284.595978	1313.346436	6348.502930	2624.046387	26.030970
284.966980	1311.030762	6425.914551	2652.827637	26.233185
285.337952	1309.817749	6500.238281	2675.212891	26.306061
285.708893	1306.730103	6535.746094	2700.244873	26.649654
286.079803	1305.406860	6558.352051	2716.234375	26.857838
286.450684	1304.745239	6574.893066	2736.083740	27.159361
286.821533	1307.391846	6588.677246	2748.213623	27.281651
287.192322	1306.399414	6596.506836	2758.799805	27.455027
287.563110	1307.391968	6602.571289	2771.591553	27.651558
287.933868	1303.642700	6627.272461	2796.071533	28.034046
288.304596	1299.672852	6668.735352	2827.499512	28.456116
288.675262	1300.885742	6725.304199	2859.478516	28.732901
289.045929	1301.326782	6777.683594	2904.800293	29.279930
289.416565	1300.113770	6826.645020	2937.220703	29.622684
289.787170	1296.805664	6843.957520	2963.024658	30.037378
290.157745	1293.718018	6845.170898	2983.976318	30.447132
290.528259	1293.497437	6840.870605	3007.574707	30.898901
290.898773	1294.820801	6830.614746	3032.716797	31.393799
291.269226	1294.269287	6813.852539	3059.292480	31.977474
291.639679	1290.630371	6797.202148	3078.479980	32.467564
292.010101	1294.820801	6810.876465	3109.135742	32.891525
292.380463	1293.828369	6840.539551	3137.696533	33.242550
292.750824	1298.680298	6882.332031	3178.497314	33.666443
293.121155	1300.775391	6928.756836	3223.377930	34.161495
293.491455	1307.502197	6990.068359	3265.833008	34.462086
293.861725	1310.920532	7072.000977	3310.824463	34.714043
294.231964	1313.125977	7184.479004	3355.705078	34.788898
294.602142	1314.669678	7298.721680	3418.891113	35.163826
294.972321	1314.669800	7398.077148	3476.122803	35.530304
295.342468	1316.213623	7496.991699	3520.673096	35.666374
295.712555	1317.095825	7559.295410	3562.024902	35.963753
296.082672	1318.419067	7583.776855	3594.885742	36.334187
296.452728	1315.882813	7585.761719	3615.066162	36.670300
296.822693	1319.080688	7589.400879	3618.705078	36.674755
297.192657	1321.065552	7589.180664	3624.880127	36.754501
297.562622	1322.388916	7606.824219	3638.885010	36.860847
297.932556	1326.027954	7627.886230	3653.441162	36.932171
298.302460	1328.233398	7634.833496	3659.616455	36.967354
298.672333	1327.792358	7640.347656	3663.255615	36.997116
299.042145	1329.005127	7636.597656	3659.395752	36.945801
299.411957	1330.218140	7623.033691	3659.065186	37.008034
299.781677	1326.027954	7584.768555	3647.927490	37.098507
300.151428	1326.579224	7523.125977	3638.774658	37.314255
300.521149	1326.248291	7458.727051	3613.742676	37.301304
300.890839	1322.829956	7386.829590	3585.071777	37.306099
301.260468	1317.095825	7310.961914	3549.895020	37.251404
301.630096	1318.418945	7223.515625	3517.364990	37.238106
301.999695	1319.080688	7102.436523	3480.754395	37.377499
302.369232	1316.323975	6976.063965	3425.838867	37.272293
302.738739	1314.449219	6859.727051	3373.018311	37.122921
303.108246	1310.699951	6722.106445	3327.254883	37.264896
303.477692	1311.251343	6610.841309	3277.191162	37.096073
303.847137	1311.361816	6522.182129	3230.656250	36.832867
304.216553	1311.361572	6456.680176	3201.434082	36.733829
304.585876	1310.369141	6397.794434	3176.401855	36.679314
304.955231	1309.597046	6350.267090	3160.963867	36.728588
305.324493	1306.619751	6311.010254	3146.517822	36.765678
305.693787	1306.178711	6280.244629	3135.159668	36.770340
306.063049	1306.509521	6274.399414	3132.954346	36.765003
306.432251	1307.391846	6272.414551	3125.014404	36.608547
306.801422	1305.627319	6267.783691	3126.778564	36.700806
307.170593	1304.524658	6268.334961	3127.771484	36.730789
307.539673	1303.642456	6275.171875	3123.580811	36.607212
307.908783	1304.304077	6290.831055	3128.102051	36.574512
308.277832	1302.650146	6307.150879	3130.969482	36.533501
308.646851	1300.444702	6338.357910	3136.372803	36.442234
309.015839	1303.973389	6378.717773	3152.141846	36.418949
309.384796	1298.239258	6410.586914	3165.154053	36.517757
309.753723	1295.151733	6446.205566	3170.667725	36.410336
310.122620	1294.600220	6472.339844	3184.451660	36.499546
310.491486	1296.144165	6484.690430	3196.581787	36.627552
310.860352	1299.342041	6501.231445	3200.551758	36.548443
311.229126	1299.452148	6515.456055	3205.403564	36.540451
311.597931	1298.680298	6523.726074	3210.917480	36.597519
311.966675	1300.224121	6544.016602	3211.358643	36.445656
312.335388	1300.665161	6579.523926	3223.598633	36.427067
312.704071	1298.680298	6617.236816	3239.146973	36.484837
313.072723	1301.326904	6632.564941	3239.478027	36.354614
313.441345	1301.988525	6630.139160	3237.934082	36.334290
313.809875	1302.650146	6611.061523	3228.119873	36.272053
314.178436	1298.459839	6573.018066	3221.062500	36.450497
314.546967	1304.193970	6535.194824	3205.072998	36.338726
314.915466	1304.635132	6494.283691	3189.414551	36.318054
315.283936	1308.604858	6440.911621	3165.705811	36.184528
315.652374	1309.266602	6398.125977	3139.240723	35.960400
316.020752	1307.943237	6345.084961	3118.729736	35.948692
316.389130	1313.236328	6299.542480	3098.219238	35.797699
