Jaz Data File
++++++++++++++++++++++++++++++++++++
Date: Thu Sep 26 04:33:05 2019
User: jaz
Dark Spectrum Present: Yes
Reference Spectrum Present: Yes
Processed Spectrum Present: Yes
Spectrometers: JAZA3541
Integration Time (usec): 100000 (JAZA3541)
Spectra Averaged: 1 (JAZA3541)
Boxcar Smoothing: 10 (JAZA3541)
Correct for Electrical Dark: No (JAZA3541)
Strobe/Lamp Enabled: Yes (JAZA3541)
Correct for Detector Non-linearity: No (JAZA3541)
Correct for Stray Light: No (JAZA3541)
Number of Pixels in Processed Spectrum: 2048
>>>>>Begin Processed Spectral Data<<<<<
W	D	R	S	P
190.543274	0.000000	0.000000	0.000000	0.000000
190.921555	0.000000	0.000000	0.000000	0.000000
191.299805	1296.805664	1336.172974	1123.126343	-441.176514
191.678024	1229.649658	1322.278564	1204.176636	-27.500078
192.056229	1345.435913	1313.015747	1162.493652	564.285400
192.434387	1331.541504	1278.279907	1150.915039	339.130768
192.812531	1303.752808	1324.594360	1162.493652	-677.776550
193.190659	1310.699951	1296.805664	1199.545166	800.003540
193.568741	1319.962891	1359.330200	1171.756592	-376.470490
193.946793	0.000000	0.000000	0.000000	0.000000
194.324829	1207.815674	1211.785522	1055.859985	-3827.745117
194.702835	1271.994385	1273.317627	1111.988770	-12091.937500
195.080811	1337.606445	1335.070313	1169.881836	6613.399902
195.458755	1337.827148	1332.203125	1170.322876	2978.370850
195.836685	1338.268188	1331.541626	1168.448364	2524.615234
196.214569	1339.811890	1336.172974	1172.307861	4603.129883
196.592422	1341.907104	1340.032471	1173.631104	8976.473633
196.970261	1342.679077	1342.127686	1173.410400	30698.451172
197.348068	1343.781860	1343.120117	1172.418091	25895.812500
197.725861	1344.222900	1342.127563	1171.976929	8220.442383
198.103622	1343.561279	1338.157837	1169.771484	3216.279297
198.481323	1340.253052	1337.496216	1168.558594	6227.953613
198.859039	1337.937378	1335.290771	1172.859131	6237.355469
199.236694	1335.070313	1335.621460	1168.668945	-30191.804688
199.614334	1333.416138	1335.511230	1173.300415	-7642.416992
199.991959	1329.115479	1337.937134	1175.726440	-1738.778442
200.369553	1324.373657	1337.826904	1172.307983	-1130.326904
200.747101	1322.499023	1341.355835	1171.205322	-802.329163
201.124619	1320.514038	1341.576294	1173.520874	-697.898499
201.502136	1316.323608	1346.538452	1175.285278	-466.784912
201.879623	1313.677246	1349.736450	1179.034546	-373.393433
202.257065	1311.030640	1351.500854	1180.578369	-322.341431
202.634476	1309.927979	1352.934570	1179.916626	-302.305634
203.011871	1305.186279	1354.809082	1181.239990	-249.776886
203.389221	1303.091064	1361.866455	1183.996948	-202.625824
203.766571	1304.745117	1367.931519	1182.122070	-194.065567
204.143875	1300.334229	1365.064331	1183.114624	-181.089783
204.521164	1296.254272	1365.284912	1183.555664	-163.258820
204.898392	1297.798096	1363.300049	1186.202148	-170.370407
205.275620	1298.459717	1368.703369	1186.974121	-158.712692
205.652817	1293.718018	1368.482910	1189.289917	-139.675323
206.029984	1293.607666	1372.673218	1191.495361	-129.148911
206.407135	1291.953613	1374.988892	1192.156982	-120.185822
206.784225	1292.394775	1374.437378	1194.472656	-119.355209
207.161301	1293.607910	1372.893555	1194.472656	-125.035568
207.538376	1298.570190	1373.555176	1188.407715	-146.912704
207.915405	1302.209229	1370.798462	1187.415161	-167.364563
208.292404	1303.422119	1370.798584	1190.943970	-166.939819
208.669373	1305.406860	1366.718506	1188.407715	-190.826950
209.046310	1302.319336	1363.961670	1182.673584	-194.096725
209.423218	1303.863159	1361.645874	1187.856323	-200.763901
209.800095	1305.737793	1357.124756	1183.886475	-237.124969
210.176956	1308.715210	1353.265137	1183.555664	-280.942200
210.553787	1308.163818	1355.911743	1186.422729	-254.966248
210.930603	1309.597412	1356.242554	1182.122070	-273.287506
211.307358	1315.221313	1353.485718	1182.342651	-347.264435
211.684113	1317.316406	1349.846680	1185.099365	-406.443054
212.060837	1316.985596	1348.413086	1179.475586	-437.546906
212.437531	1316.765015	1350.839233	1180.468140	-400.000000
212.814178	1314.008179	1354.037109	1179.696289	-335.537048
213.190826	1312.574585	1351.280273	1177.711304	-348.432709
213.567413	1313.125977	1352.383057	1180.358032	-338.201263
213.943985	1310.258789	1357.345337	1176.718750	-283.605499
214.320541	1309.266479	1357.124756	1174.072266	-282.488678
214.697052	1307.612305	1361.315186	1171.205078	-254.003555
215.073563	1309.266357	1363.300049	1172.749023	-252.652237
215.449997	1303.863159	1360.874023	1176.277588	-223.791687
215.826431	1301.326904	1362.086914	1178.262695	-202.541458
216.202850	1300.334351	1364.954102	1176.167358	-192.150223
216.579224	1298.459717	1369.695923	1179.365356	-167.182343
216.955582	1300.885742	1374.989014	1181.129517	-161.607208
217.331894	1300.554932	1374.217041	1175.946777	-169.161804
217.708191	1300.003418	1376.863647	1175.505615	-161.979477
218.084442	1300.113770	1383.480103	1177.711182	-146.824966
218.460678	1296.915771	1384.141602	1174.954346	-139.822601
218.836899	1295.041260	1385.685303	1176.608398	-130.657089
219.213074	1292.615234	1387.339478	1176.277588	-122.817184
219.589233	1294.269287	1392.191650	1177.931763	-118.805878
219.965347	1296.805542	1398.697510	1180.357910	-114.285393
220.341431	1295.592529	1399.359131	1177.821655	-113.495934
220.717499	1296.254150	1400.241455	1179.144775	-112.618919
221.093552	1295.041260	1402.336548	1183.666016	-103.802551
221.469543	1299.011108	1407.078247	1179.806396	-110.306160
221.845535	1302.980835	1407.409058	1181.239990	-116.578491
222.221466	1305.296631	1411.709595	1183.004272	-114.922424
222.597397	1305.186279	1417.884766	1184.879028	-106.751434
222.973297	1302.760376	1426.706543	1187.635742	-92.882767
223.349167	1300.554932	1437.403076	1190.061768	-80.741440
223.725006	1297.467285	1446.996826	1189.179443	-72.419029
224.100800	1295.041260	1454.385010	1196.347412	-61.937695
224.476578	1295.372070	1465.081543	1198.221924	-57.244976
224.852325	1297.577515	1475.778076	1199.545288	-55.012299
225.228058	1298.680298	1495.847778	1198.663086	-50.727032
225.603760	1297.577637	1523.195313	1203.735718	-41.593338
225.979416	1295.261963	1552.086792	1208.697876	-33.705498
226.355057	1295.372192	1590.351318	1215.314209	-27.140221
226.730652	1296.805664	1642.069214	1219.725098	-22.325138
227.106232	1296.915894	1691.912231	1227.113281	-17.671711
227.481796	1294.159180	1736.903687	1236.486572	-13.026160
227.857315	1292.946167	1778.145630	1243.874878	-10.113632
228.232788	1296.033813	1815.638184	1248.616455	-9.125666
228.608246	1296.695435	1848.058350	1253.468506	-7.840014
228.983704	1297.026245	1883.345459	1258.871948	-6.507427
229.359100	1297.577637	1916.206665	1266.590942	-5.008930
229.734482	1293.166748	1945.870117	1274.751221	-2.821424
230.109833	1290.189453	1973.768921	1280.154541	-1.467995
230.485153	1290.189331	1989.979126	1284.124390	-0.866680
230.860443	1289.527710	2012.585205	1286.881104	-0.366030
231.235703	1293.166748	2031.331421	1292.615356	-0.074698
231.610931	1293.607788	2055.481445	1300.444702	0.897382
231.986145	1293.056396	2079.300049	1303.752808	1.360445
232.361313	1290.189209	2098.708252	1310.920532	2.564111
232.736465	1287.983765	2121.313965	1320.293701	3.877207
233.111572	1285.888550	2134.656982	1328.123047	4.975974
233.486664	1288.865845	2141.052734	1330.879883	4.930144
233.861725	1290.409668	2141.604248	1330.108032	4.663841
234.236755	1292.284302	2138.957520	1331.541626	4.636656
234.611771	1296.474731	2120.873047	1336.283325	4.828806
234.986740	1298.900635	2101.023926	1337.716797	4.839177
235.361679	1299.782959	2083.710938	1335.842041	4.599795
235.736588	1298.570068	2073.235107	1339.811890	5.323826
236.111496	1297.908447	2069.375488	1346.759155	6.332183
236.486343	1298.459717	2071.139893	1348.744141	6.507792
236.861160	1301.106323	2071.250000	1353.044800	6.743999
237.235962	1300.334351	2079.961426	1356.573608	7.213610
237.610733	1302.760376	2089.996338	1365.395386	7.956320
237.985474	1301.437134	2106.978271	1373.445435	8.939121
238.360199	1300.665283	2140.501221	1383.921143	9.913348
238.734879	1301.767944	2177.662842	1400.903076	11.318153
239.109543	1300.334473	2227.616455	1418.877563	12.783931
239.484177	1304.635132	2281.650146	1439.498413	13.803604
239.858749	1310.810303	2350.680908	1466.184326	14.941669
240.233322	1311.361694	2434.047119	1496.178589	16.462038
240.607864	1313.126099	2511.899414	1524.959595	17.670855
240.982391	1314.559570	2592.618896	1555.284546	18.835196
241.356857	1316.213745	2651.063232	1581.088379	19.843033
241.731308	1315.000610	2704.435059	1603.914673	20.793644
242.105728	1317.977905	2744.684814	1622.881470	21.371141
242.480118	1312.354126	2785.926758	1641.848389	22.360231
242.854492	1310.479492	2835.880127	1659.712646	22.894520
243.228836	1309.045898	2893.442383	1681.546509	23.510569
243.603134	1312.905518	2957.290283	1709.555786	24.121500
243.977402	1312.023193	3046.721436	1744.291504	24.918934
244.351654	1310.920532	3168.241699	1792.590942	25.933609
244.725861	1310.810303	3315.235107	1849.050537	26.852602
245.100067	1311.912964	3466.970215	1912.016235	27.846281
245.474213	1311.361694	3603.377197	1968.255249	28.660082
245.848343	1316.985474	3710.341553	2020.745117	29.404720
246.222443	1318.198486	3794.700195	2057.466064	29.851284
246.596512	1318.419067	3855.019287	2083.931396	30.178677
246.970566	1321.286133	3892.181641	2100.802979	30.320829
247.344574	1320.845093	3904.862793	2112.161133	30.623478
247.718567	1317.206055	3891.740234	2114.917725	30.984699
248.092529	1318.749756	3859.430420	2109.294189	31.115458
248.466431	1315.441650	3833.075195	2106.647461	31.426567
248.840332	1313.236206	3807.051025	2106.757324	31.819567
249.214203	1311.030640	3809.476563	2108.853027	31.932747
249.588043	1313.787598	3825.797363	2120.652344	32.120289
249.961838	1310.038330	3853.696045	2137.854492	32.544323
250.335617	1313.677124	3886.888428	2149.653564	32.487671
250.709381	1313.456665	3901.664795	2158.145020	32.636032
251.083084	1318.198608	3899.569824	2163.217529	32.735275
251.456787	1314.780029	3882.367188	2154.505859	32.704861
251.830460	1316.434204	3829.656738	2140.501221	32.789257
252.204071	1313.456787	3746.069824	2111.168945	32.792397
252.577667	1310.038452	3638.995117	2070.588623	32.656261
252.951248	1310.369263	3513.615234	2022.068604	32.302307
253.324799	1308.604858	3406.099365	1978.069580	31.917351
253.698303	1305.737671	3326.152100	1941.459106	31.464903
254.071793	1305.296631	3267.817627	1915.875977	31.111990
254.445236	1304.083618	3233.853760	1896.798950	30.714296
254.818665	1300.113770	3219.959473	1891.285156	30.792650
255.192062	1300.003418	3219.077393	1895.034180	31.006140
255.565430	1300.444458	3243.888672	1898.011719	30.747847
255.938782	1301.878052	3283.365967	1911.024048	30.741848
256.312103	1304.745117	3340.266846	1926.351807	30.537954
256.685364	1306.730225	3419.442383	1943.995483	30.163374
257.058594	1304.965820	3518.357178	1972.776611	30.171383
257.431793	1302.098633	3646.714600	2014.128906	30.368738
257.804993	1302.760254	3790.178955	2061.546143	30.504951
258.178162	1299.672729	3928.240234	2113.925293	30.977047
258.551270	1298.128906	4052.517578	2160.681152	31.315559
258.924377	1294.379639	4145.587402	2197.291748	31.667707
259.297485	1293.938599	4222.999023	2221.992676	31.684361
259.670502	1293.056396	4286.625977	2243.054688	31.734632
260.043518	1295.151489	4346.063477	2266.873779	31.850222
260.416473	1298.569946	4394.473145	2287.715088	31.950130
260.789459	1297.026123	4449.830078	2306.792236	32.027557
261.162354	1297.246704	4497.467773	2326.090088	32.149132
261.535278	1298.349365	4541.796875	2337.779053	32.047062
261.908142	1298.790527	4576.092285	2349.357422	32.055847
262.280975	1301.216553	4595.279297	2358.510010	32.096943
262.653717	1302.870605	4609.834961	2361.046387	31.998404
263.026520	1300.113892	4627.809570	2353.768555	31.663191
263.399261	1297.357056	4643.688477	2358.951416	31.724123
263.771973	1296.915894	4654.495605	2351.783203	31.417492
264.144653	1298.239258	4653.502930	2349.798584	31.340588
264.517334	1301.106323	4633.103027	2346.490234	31.374100
264.889954	1302.208862	4586.678223	2335.352783	31.455429
265.262543	1305.627563	4506.179199	2301.388672	31.112169
265.635071	1308.053589	4405.610840	2260.918701	30.761826
266.007599	1311.802856	4310.224609	2220.228027	30.296776
266.380127	1312.133545	4240.201660	2186.705566	29.868568
266.752594	1315.882935	4205.575684	2159.798828	29.204346
267.125031	1315.000732	4197.084473	2150.756592	28.998320
267.497437	1313.236328	4212.963867	2147.448242	28.768631
267.869843	1316.544556	4239.098633	2143.698975	28.302450
268.242218	1313.567261	4277.473633	2143.919678	28.015474
268.614532	1311.913208	4335.697754	2154.285156	27.858198
268.986816	1312.354126	4430.973633	2171.598145	27.552063
269.359100	1311.471924	4539.150879	2204.018066	27.652878
269.731354	1310.038452	4652.510742	2235.115234	27.676424
270.103516	1311.030762	4749.219727	2261.690918	27.650026
270.475708	1311.361572	4830.049805	2285.178955	27.675581
270.847839	1314.890381	4902.499023	2311.423828	27.777094
271.219971	1318.419067	4961.053711	2326.972168	27.687462
271.592041	1320.403809	5006.596191	2340.645996	27.677399
271.964081	1321.065552	5036.369629	2348.585693	27.656420
272.336151	1316.434204	5064.048340	2350.019287	27.579815
272.708130	1316.654785	5090.182129	2347.262451	27.311520
273.080109	1313.015869	5107.385254	2351.121826	27.359118
273.452026	1311.582275	5141.238770	2356.855957	27.294189
273.823914	1310.369263	5176.085449	2359.171875	27.130875
274.195770	1310.369263	5215.893555	2362.810791	26.947508
274.567627	1309.376831	5261.987793	2371.522461	26.872002
274.939423	1310.700073	5304.332031	2383.762451	26.869337
275.311249	1312.243896	5345.464355	2390.599609	26.736841
275.682983	1310.479492	5376.120117	2397.987793	26.748756
276.054688	1309.707520	5401.151855	2407.250488	26.825319
276.426422	1307.943115	5403.577148	2407.581299	26.849033
276.798065	1312.243896	5370.495117	2395.782227	26.699636
277.169708	1313.236206	5325.172852	2376.484619	26.502125
277.541321	1317.757446	5277.536133	2363.472412	26.408419
277.912903	1316.985352	5267.832031	2354.430176	26.258797
278.284424	1316.764893	5279.741211	2354.319824	26.181204
278.655945	1315.882813	5301.685547	2359.061523	26.172361
279.027435	1312.574707	5332.010254	2367.221680	26.238684
279.398865	1310.920532	5391.226563	2385.968262	26.347233
279.770294	1307.502075	5467.424805	2409.015137	26.479170
280.141663	1310.810303	5539.763672	2431.951660	26.511086
280.513031	1313.015869	5615.631348	2456.983643	26.587730
280.884369	1315.993164	5680.912598	2480.030762	26.668020
281.255676	1314.559570	5725.462402	2499.879883	26.872511
281.626953	1313.787720	5763.727051	2516.199951	27.020866
281.998199	1316.654907	5805.189453	2539.577637	27.245478
282.369385	1313.346680	5856.245605	2561.080811	27.465593
282.740540	1313.236328	5915.572754	2582.473877	27.578114
283.111694	1311.802856	5983.280273	2611.365234	27.819086
283.482819	1310.479492	6070.064941	2637.610107	27.883324
283.853912	1314.559570	6165.339844	2665.619141	27.852417
284.224945	1315.441772	6257.858398	2699.472900	28.003126
284.595978	1313.346436	6348.502930	2736.303955	28.260445
284.966980	1311.030762	6425.914551	2776.443115	28.649963
285.337952	1309.817749	6500.238281	2805.334717	28.813023
285.708893	1306.730103	6535.746094	2832.020752	29.169744
286.079803	1305.406860	6558.352051	2852.751953	29.456715
286.450684	1304.745239	6574.893066	2866.315186	29.630476
286.821533	1307.391846	6588.677246	2885.281982	29.877010
287.192322	1306.399414	6596.506836	2900.610107	30.135696
287.563110	1307.391968	6602.571289	2917.923096	30.415045
287.933868	1303.642700	6627.272461	2942.623779	30.786909
288.304596	1299.672852	6668.735352	2972.507813	31.156929
288.675262	1300.885742	6725.304199	3011.654785	31.538294
289.045929	1301.326782	6777.683594	3045.729004	31.853333
289.416565	1300.113770	6826.645020	3080.575195	32.216618
289.787170	1296.805664	6843.957520	3108.253418	32.655457
290.157745	1293.718018	6845.170898	3134.167725	33.152576
290.528259	1293.497437	6840.870605	3156.773438	33.588440
290.898773	1294.820801	6830.614746	3175.188721	33.967449
291.269226	1294.269287	6813.852539	3201.543945	34.554688
291.639679	1290.630371	6797.202148	3220.621338	35.048866
292.010101	1294.820801	6810.876465	3251.938721	35.480389
292.380463	1293.828369	6840.539551	3290.313721	35.994041
292.750824	1298.680298	6882.332031	3324.828613	36.287155
293.121155	1300.775391	6928.756836	3369.158447	36.751774
293.491455	1307.502197	6990.068359	3419.663330	37.169140
293.861725	1310.920532	7072.000977	3469.506592	37.468422
294.231964	1313.125977	7184.479004	3527.840820	37.720688
294.602142	1314.669678	7298.721680	3585.623779	37.950108
294.972321	1314.669800	7398.077148	3646.934814	38.338139
295.342468	1316.213623	7496.991699	3697.440186	38.526321
295.712555	1317.095825	7559.295410	3740.225830	38.818527
296.082672	1318.419067	7583.776855	3775.623047	39.218895
296.452728	1315.882813	7585.761719	3790.951172	39.475536
296.822693	1319.080688	7589.400879	3799.994141	39.565979
297.192657	1321.065552	7589.180664	3809.146240	39.694237
297.562622	1322.388916	7606.824219	3821.827393	39.771885
297.932556	1326.027954	7627.886230	3837.486328	39.852665
298.302460	1328.233398	7634.833496	3852.373047	40.023777
298.672333	1327.792358	7640.347656	3855.019287	40.034931
299.042145	1329.005127	7636.597656	3858.658447	40.104893
299.411957	1330.218140	7623.033691	3863.510010	40.256893
299.781677	1326.027954	7584.768555	3850.608643	40.336876
300.151428	1326.579224	7523.125977	3832.854980	40.446331
300.521149	1326.248291	7458.727051	3809.587402	40.494869
300.890839	1322.829956	7386.829590	3774.740967	40.433895
301.260468	1317.095825	7310.961914	3735.263428	40.344036
301.630096	1318.418945	7223.515625	3691.926270	40.194218
301.999695	1319.080688	7102.436523	3655.315918	40.395844
302.369232	1316.323975	6976.063965	3608.891113	40.506580
302.738739	1314.449219	6859.727051	3552.982910	40.368286
303.108246	1310.699951	6722.106445	3501.816162	40.490700
303.477692	1311.251343	6610.841309	3453.186035	40.416988
303.847137	1311.361816	6522.182129	3405.879395	40.195545
304.216553	1311.361572	6456.680176	3374.671875	40.100731
304.585876	1310.369141	6397.794434	3351.293945	40.117046
304.955231	1309.597046	6350.267090	3331.886230	40.119453
305.324493	1306.619751	6311.010254	3308.728760	40.007050
305.693787	1306.178711	6280.244629	3286.784668	39.818649
306.063049	1306.509521	6274.399414	3275.536377	39.635075
306.432251	1307.391846	6272.414551	3275.426270	39.637978
306.801422	1305.627319	6267.783691	3270.905518	39.605328
307.170593	1304.524658	6268.334961	3274.103516	39.678768
307.539673	1303.642456	6275.171875	3275.757813	39.668182
307.908783	1304.304077	6290.831055	3274.323730	39.506851
308.277832	1302.650146	6307.150879	3282.594238	39.563267
308.646851	1300.444702	6338.357910	3295.496338	39.600754
309.015839	1303.973389	6378.717773	3313.360107	39.595821
309.384796	1298.239258	6410.586914	3339.825928	39.934425
309.753723	1295.151733	6446.205566	3352.176270	39.934052
310.122620	1294.600220	6472.339844	3360.887695	39.907135
310.491486	1296.144165	6484.690430	3370.812012	39.985535
310.860352	1299.342041	6501.231445	3375.884766	39.919006
311.229126	1299.452148	6515.456055	3381.287842	39.912464
311.597931	1298.680298	6523.726074	3391.102295	40.046001
311.966675	1300.224121	6544.016602	3393.969482	39.928074
312.335388	1300.665161	6579.523926	3406.651123	39.894718
312.704071	1298.680298	6617.236816	3421.978760	39.922455
313.072723	1301.326904	6632.564941	3431.903564	39.964012
313.441345	1301.988525	6630.139160	3433.888672	40.012012
313.809875	1302.650146	6611.061523	3417.126953	39.832573
314.178436	1298.459839	6573.018066	3405.217529	39.941883
314.546967	1304.193970	6535.194824	3387.573730	39.827557
314.915466	1304.635132	6494.283691	3361.880127	39.641319
315.283936	1308.604858	6440.911621	3340.928223	39.598637
315.652374	1309.266602	6398.125977	3318.322510	39.479492
316.020752	1307.943237	6345.084961	3292.959717	39.407597
316.389130	1313.236328	6299.542480	3272.008301	39.283028
