Jaz Data File
++++++++++++++++++++++++++++++++++++
Date: Thu Sep 26 04:30:50 2019
User: jaz
Dark Spectrum Present: Yes
Reference Spectrum Present: Yes
Processed Spectrum Present: Yes
Spectrometers: JAZA3541
Integration Time (usec): 100000 (JAZA3541)
Spectra Averaged: 1 (JAZA3541)
Boxcar Smoothing: 10 (JAZA3541)
Correct for Electrical Dark: No (JAZA3541)
Strobe/Lamp Enabled: Yes (JAZA3541)
Correct for Detector Non-linearity: No (JAZA3541)
Correct for Stray Light: No (JAZA3541)
Number of Pixels in Processed Spectrum: 2048
>>>>>Begin Processed Spectral Data<<<<<
W	D	R	S	P
190.543274	0.000000	0.000000	0.000000	0.000000
190.921555	0.000000	0.000000	0.000000	0.000000
191.299805	1296.805664	1336.172974	1190.282349	-270.588257
191.678024	1229.649658	1322.278564	1118.494873	-120.000107
192.056229	1345.435913	1313.015747	1162.493652	564.285400
192.434387	1331.541504	1278.279907	1206.492432	234.782806
192.812531	1303.752808	1324.594360	1264.385498	-188.888565
193.190659	1310.699951	1296.805664	1197.229492	816.669861
193.568741	1319.962891	1359.330200	1215.755249	-264.706024
193.946793	0.000000	0.000000	0.000000	0.000000
194.324829	1207.815674	1211.785522	1091.147217	-2938.864014
194.702835	1271.994385	1273.317627	1149.481445	-9258.541992
195.080811	1337.606445	1335.070313	1207.705322	5122.015625
195.458755	1337.827148	1332.203125	1207.484741	2317.600830
195.836685	1338.268188	1331.541626	1211.564819	1883.627319
196.214569	1339.811890	1336.172974	1213.770264	3463.713623
196.592422	1341.907104	1340.032471	1215.865479	6723.533203
196.970261	1342.679077	1342.127686	1212.336792	23638.787109
197.348068	1343.781860	1343.120117	1212.336914	19863.439453
197.725861	1344.222900	1342.127563	1212.777832	6273.218750
198.103622	1343.561279	1338.157837	1212.226563	2430.574951
198.481323	1340.253052	1337.496216	1208.256592	4787.969238
198.859039	1337.937378	1335.290771	1210.793091	4804.049805
199.236694	1335.070313	1335.621460	1209.690430	-22748.880859
199.614334	1333.416138	1335.511230	1208.256836	-5973.926270
199.991959	1329.115479	1337.937134	1208.587524	-1366.273682
200.369553	1324.373657	1337.826904	1210.241699	-848.359924
200.747101	1322.499023	1341.355835	1213.660156	-577.185974
201.124619	1320.514038	1341.576294	1217.850464	-487.429138
201.502136	1316.323608	1346.538452	1220.166260	-318.245392
201.879623	1313.677246	1349.736450	1219.945557	-259.938324
202.257065	1311.030640	1351.500854	1219.063477	-227.246536
202.634476	1309.927979	1352.934570	1221.268921	-206.152252
203.011871	1305.186279	1354.809082	1222.040771	-167.555038
203.389221	1303.091064	1361.866455	1225.789917	-131.519577
203.766571	1304.745117	1367.931519	1227.113159	-122.861809
204.143875	1300.334229	1365.064331	1229.759766	-109.028816
204.521164	1296.254272	1365.284912	1226.231079	-101.437843
204.898392	1297.798096	1363.300049	1229.098267	-104.882111
205.275620	1298.459717	1368.703369	1231.083008	-95.918571
205.652817	1293.718018	1368.482910	1227.444214	-88.642944
206.029984	1293.607666	1372.673218	1226.782471	-84.518723
206.407135	1291.953613	1374.988892	1225.679932	-79.813889
206.784225	1292.394775	1374.437378	1224.246338	-83.064697
207.161301	1293.607910	1372.893555	1225.238892	-86.231270
207.538376	1298.570190	1373.555176	1227.775024	-94.412453
207.915405	1302.209229	1370.798462	1226.231201	-110.772530
208.292404	1303.422119	1370.798584	1225.900513	-115.057396
208.669373	1305.406860	1366.718506	1225.569580	-130.215530
209.046310	1302.319336	1363.961670	1222.261475	-129.874802
209.423218	1303.863159	1361.645874	1221.048462	-143.320877
209.800095	1305.737793	1357.124756	1219.504517	-167.811584
210.176956	1308.715210	1353.265137	1219.725220	-199.753387
210.553787	1308.163818	1355.911743	1218.071167	-188.683914
210.930603	1309.597412	1356.242554	1215.975952	-200.709991
211.307358	1315.221313	1353.485718	1211.785522	-270.318573
211.684113	1317.316406	1349.846680	1210.903320	-327.120178
212.060837	1316.985596	1348.413086	1204.838379	-356.844330
212.437531	1316.765015	1350.839233	1207.926025	-319.417419
212.814178	1314.008179	1354.037109	1204.397339	-273.829041
213.190826	1312.574585	1351.280273	1204.287231	-279.771149
213.567413	1313.125977	1352.383057	1207.926025	-267.977020
213.943985	1310.258789	1357.345337	1208.036255	-217.094986
214.320541	1309.266479	1357.124756	1207.484985	-212.672714
214.697052	1307.612305	1361.315186	1206.933594	-187.473572
215.073563	1309.266357	1363.300049	1210.682739	-182.448425
215.449997	1303.863159	1360.874023	1208.477295	-167.311737
215.826431	1301.326904	1362.086914	1206.051392	-156.806290
216.202850	1300.334351	1364.954102	1207.926025	-143.003220
216.579224	1298.459717	1369.695923	1207.043701	-128.328018
216.955582	1300.885742	1374.989014	1206.161621	-127.827179
217.331894	1300.554932	1374.217041	1199.765869	-136.826202
217.708191	1300.003418	1376.863647	1200.978760	-128.837311
218.084442	1300.113770	1383.480103	1200.427490	-119.576187
218.460678	1296.915771	1384.141602	1201.419922	-109.481155
218.836899	1295.041260	1385.685303	1203.625366	-100.851517
219.213074	1292.615234	1387.339478	1204.507568	-93.014908
219.589233	1294.269287	1392.191650	1203.735718	-92.454437
219.965347	1296.805542	1398.697510	1206.382080	-88.744446
220.341431	1295.592529	1399.359131	1204.948608	-87.353653
220.717499	1296.254150	1400.241455	1205.168945	-87.592621
221.093552	1295.041260	1402.336548	1204.948608	-83.967018
221.469543	1299.011108	1407.078247	1204.286865	-87.653145
221.845535	1302.980835	1407.409058	1203.625244	-95.142471
222.221466	1305.296631	1411.709595	1206.161499	-93.160767
222.597397	1305.186279	1417.884766	1204.507324	-89.334785
222.973297	1302.760376	1426.706543	1204.617676	-79.181717
223.349167	1300.554932	1437.403076	1207.484741	-68.009827
223.725006	1297.467285	1446.996826	1210.021118	-58.480865
224.100800	1295.041260	1454.385010	1214.321655	-50.657528
224.476578	1295.372070	1465.081543	1215.975708	-46.783695
224.852325	1297.577515	1475.778076	1217.299072	-45.049488
225.228058	1298.680298	1495.847778	1225.348999	-37.192390
225.603760	1297.577637	1523.195313	1228.877808	-30.449667
225.979416	1295.261963	1552.086792	1234.611816	-23.615376
226.355057	1295.372192	1590.351318	1239.022705	-19.102873
226.730652	1296.805664	1642.069214	1247.954834	-14.148852
227.106232	1296.915894	1691.912231	1258.320557	-9.771062
227.481796	1294.159180	1736.903687	1272.986694	-4.782100
227.857315	1292.946167	1778.145630	1284.455078	-1.750020
228.232788	1296.033813	1815.638184	1292.063843	-0.764037
228.608246	1296.695435	1848.058350	1302.098633	0.979971
228.983704	1297.026245	1883.345459	1309.927979	2.200462
229.359100	1297.577637	1916.206665	1318.750000	3.422465
229.734482	1293.166748	1945.870117	1329.887451	5.625940
230.109833	1290.189453	1973.768921	1338.047607	7.001111
230.485153	1290.189331	1989.979126	1349.074829	8.414741
230.860443	1289.527710	2012.585205	1351.831665	8.616736
231.235703	1293.166748	2031.331421	1356.132202	8.530001
231.610931	1293.607788	2055.481445	1364.843872	9.350118
231.986145	1293.056396	2079.300049	1367.931396	9.523129
232.361313	1290.189209	2098.708252	1371.680664	10.079102
232.736465	1287.983765	2121.313965	1377.525146	10.745007
233.111572	1285.888550	2134.656982	1380.502441	11.147198
233.486664	1288.865845	2141.052734	1386.236572	11.425982
233.861725	1290.409668	2141.604248	1388.442139	11.517046
234.236755	1292.284302	2138.957520	1394.837891	12.112535
234.611771	1296.474731	2120.873047	1396.271484	12.105405
234.986740	1298.900635	2101.023926	1401.895386	12.840264
235.361679	1299.782959	2083.710938	1400.241211	12.814730
235.736588	1298.570068	2073.235107	1402.998047	13.480404
236.111496	1297.908447	2069.375488	1405.644653	13.965108
236.486343	1298.459717	2071.139893	1412.150757	14.713855
236.861160	1301.106323	2071.250000	1418.436279	15.234814
237.235962	1300.334351	2079.961426	1429.243042	16.534660
237.610733	1302.760376	2089.996338	1434.756714	16.767061
237.985474	1301.437134	2106.978271	1446.555786	18.015051
238.360199	1300.665283	2140.501221	1462.324829	19.248943
238.734879	1301.767944	2177.662842	1483.717651	20.773006
239.109543	1300.334473	2227.616455	1508.198242	22.416458
239.484177	1304.635132	2281.650146	1536.979248	23.781017
239.858749	1310.810303	2350.680908	1573.479492	25.259796
240.233322	1311.361694	2434.047119	1615.603638	27.099483
240.607864	1313.126099	2511.899414	1661.036133	29.022171
240.982391	1314.559570	2592.618896	1702.719116	30.371012
241.356857	1316.213745	2651.063232	1739.550049	31.714161
241.731308	1315.000610	2704.435059	1777.373657	33.277786
242.105728	1317.977905	2744.684814	1803.949463	34.062466
242.480118	1312.354126	2785.926758	1832.399780	35.291485
242.854492	1310.479492	2835.880127	1855.336304	35.718933
243.228836	1309.045898	2893.442383	1887.315430	36.497780
243.603134	1312.905518	2957.290283	1924.146362	37.171402
243.977402	1312.023193	3046.721436	1976.967041	38.331959
244.351654	1310.920532	3168.241699	2037.396362	39.114174
244.725861	1310.810303	3315.235107	2109.624756	39.852554
245.100067	1311.912964	3466.970215	2187.918457	40.648830
245.474213	1311.361694	3603.377197	2267.424805	41.712765
245.848343	1316.985474	3710.341553	2332.485840	42.429977
246.222443	1318.198486	3794.700195	2387.070801	43.160572
246.596512	1318.419067	3855.019287	2426.438232	43.681271
246.970566	1321.286133	3892.181641	2453.675293	44.046486
247.344574	1320.845093	3904.862793	2467.790283	44.386124
247.718567	1317.206055	3891.740234	2472.973145	44.892281
248.092529	1318.749756	3859.430420	2466.577393	45.177959
248.466431	1315.441650	3833.075195	2455.660156	45.289295
248.840332	1313.236206	3807.051025	2449.374512	45.558243
249.214203	1311.030640	3809.476563	2449.815674	45.579739
249.588043	1313.787598	3825.797363	2454.447021	45.408241
249.961838	1310.038330	3853.696045	2467.238770	45.493561
250.335617	1313.677124	3886.888428	2479.809814	45.318184
250.709381	1313.456665	3901.664795	2495.248047	45.660603
251.083084	1318.198608	3899.569824	2497.453369	45.683270
251.456787	1314.780029	3882.367188	2485.544189	45.597836
251.830460	1316.434204	3829.656738	2462.497070	45.601326
252.204071	1313.456787	3746.069824	2420.152344	45.494106
252.577667	1310.038452	3638.995117	2372.845459	45.634472
252.951248	1310.369263	3513.615234	2311.754395	45.450443
253.324799	1308.604858	3406.099365	2252.758789	45.013412
253.698303	1305.737671	3326.152100	2207.657227	44.640324
254.071793	1305.296631	3267.817627	2170.164551	44.069233
254.445236	1304.083618	3233.853760	2143.919678	43.520004
254.818665	1300.113770	3219.959473	2134.215820	43.446308
255.192062	1300.003418	3219.077393	2134.877441	43.504005
255.565430	1300.444458	3243.888672	2138.406006	43.117344
255.938782	1301.878052	3283.365967	2156.160156	43.113163
256.312103	1304.745117	3340.266846	2177.222168	42.862576
256.685364	1306.730225	3419.442383	2208.870361	42.700569
257.058594	1304.965820	3518.357178	2242.503418	42.357517
257.431793	1302.098633	3646.714600	2287.163818	42.013924
257.804993	1302.760254	3790.178955	2341.638428	41.765312
258.178162	1299.672729	3928.240234	2400.303467	41.871887
258.551270	1298.128906	4052.517578	2447.831055	41.740738
258.924377	1294.379639	4145.587402	2488.301270	41.874241
259.297485	1293.938599	4222.999023	2520.390381	41.871849
259.670502	1293.056396	4286.625977	2545.532471	41.838882
260.043518	1295.151489	4346.063477	2571.887695	41.847691
260.416473	1298.569946	4394.473145	2589.862061	41.709705
260.789459	1297.026123	4449.830078	2608.608398	41.600502
261.162354	1297.246704	4497.467773	2626.251953	41.528545
261.535278	1298.349365	4541.796875	2643.344238	41.468063
261.908142	1298.790527	4576.092285	2649.078613	41.201214
262.280975	1301.216553	4595.279297	2656.576904	41.145554
262.653717	1302.870605	4609.834961	2655.584473	40.905003
263.026520	1300.113892	4627.809570	2651.394043	40.607082
263.399261	1297.357056	4643.688477	2650.842529	40.446842
263.771973	1296.915894	4654.495605	2645.659668	40.170120
264.144653	1298.239258	4653.502930	2641.469482	40.033524
264.517334	1301.106323	4633.103027	2632.206543	39.949028
264.889954	1302.208862	4586.678223	2613.239502	39.916058
265.262543	1305.627563	4506.179199	2581.371094	39.860111
265.635071	1308.053589	4405.610840	2532.299561	39.522949
266.007599	1311.802856	4310.224609	2479.699707	38.950386
266.380127	1312.133545	4240.201660	2440.884033	38.549324
266.752594	1315.882935	4205.575684	2415.852051	38.065262
267.125031	1315.000732	4197.084473	2404.383545	37.798443
267.497437	1313.236328	4212.963867	2397.987793	37.408737
267.869843	1316.544556	4239.098633	2396.223145	36.942978
268.242218	1313.567261	4277.473633	2399.751953	36.647068
268.614532	1311.913208	4335.697754	2416.072266	36.515797
268.986816	1312.354126	4430.973633	2442.758301	36.246941
269.359100	1311.471924	4539.150879	2471.980713	35.954903
269.731354	1310.038452	4652.510742	2511.348145	35.940754
270.103516	1311.030762	4749.219727	2540.129150	35.748425
270.475708	1311.361572	4830.049805	2562.514404	35.557365
270.847839	1314.890381	4902.499023	2587.325684	35.467506
271.219971	1318.419067	4961.053711	2601.991943	35.237484
271.592041	1320.403809	5006.596191	2611.034668	35.012573
271.964081	1321.065552	5036.369629	2615.445557	34.839138
272.336151	1316.434204	5064.048340	2613.791504	34.618217
272.708130	1316.654785	5090.182129	2616.327637	34.441856
273.080109	1313.015869	5107.385254	2617.650879	34.383446
273.452026	1311.582275	5141.238770	2625.590576	34.311390
273.823914	1310.369263	5176.085449	2631.655518	34.179596
274.195770	1310.369263	5215.893555	2638.492432	34.006271
274.567627	1309.376831	5261.987793	2639.925781	33.662533
274.939423	1310.700073	5304.332031	2646.101074	33.438259
275.311249	1312.243896	5345.464355	2651.504395	33.205734
275.682983	1310.479492	5376.120117	2661.759766	33.236588
276.054688	1309.707520	5401.151855	2662.090576	33.053928
276.426422	1307.943115	5403.577148	2650.953125	32.791260
276.798065	1312.243896	5370.495117	2631.765625	32.514542
277.169708	1313.236206	5325.172852	2608.718750	32.290703
277.541321	1317.757446	5277.536133	2586.553711	32.042099
277.912903	1316.985352	5267.832031	2582.804688	32.039192
278.284424	1316.764893	5279.741211	2585.781982	32.021820
278.655945	1315.882813	5301.685547	2587.656738	31.907598
279.027435	1312.574707	5332.010254	2598.684082	31.997263
279.398865	1310.920532	5391.226563	2621.730957	32.125298
279.770294	1307.502075	5467.424805	2652.055908	32.321606
280.141663	1310.810303	5539.763672	2676.536377	32.294662
280.513031	1313.015869	5615.631348	2704.214355	32.333790
280.884369	1315.993164	5680.912598	2731.121094	32.420483
281.255676	1314.559570	5725.462402	2747.220703	32.479996
281.626953	1313.787720	5763.727051	2758.468750	32.465183
281.998199	1316.654907	5805.189453	2772.803955	32.441525
282.369385	1313.346680	5856.245605	2796.402344	32.645580
282.740540	1313.236328	5915.572754	2818.787598	32.712761
283.111694	1311.802856	5983.280273	2848.891846	32.903702
283.482819	1310.479492	6070.064941	2878.775879	32.950272
283.853912	1314.559570	6165.339844	2916.268799	33.019619
284.224945	1315.441772	6257.858398	2970.963867	33.496208
284.595978	1313.346436	6348.502930	3017.719727	33.849461
284.966980	1311.030762	6425.914551	3054.991699	34.095806
285.337952	1309.817749	6500.238281	3083.772949	34.177486
285.708893	1306.730103	6535.746094	3108.804688	34.462975
286.079803	1305.406860	6558.352051	3131.962158	34.772022
286.450684	1304.745239	6574.893066	3156.111572	35.129303
286.821533	1307.391846	6588.677246	3179.709717	35.451935
287.192322	1306.399414	6596.506836	3202.205811	35.836823
287.563110	1307.391968	6602.571289	3218.856689	36.098206
287.933868	1303.642700	6627.272461	3253.592285	36.628197
288.304596	1299.672852	6668.735352	3293.951904	37.143898
288.675262	1300.885742	6725.304199	3335.524902	37.508888
289.045929	1301.326782	6777.683594	3388.896973	38.119690
289.416565	1300.113770	6826.645020	3442.599609	38.767281
289.787170	1296.805664	6843.957520	3480.092529	39.358700
290.157745	1293.718018	6845.170898	3519.459717	40.092957
290.528259	1293.497437	6840.870605	3557.173096	40.806267
290.898773	1294.820801	6830.614746	3587.828125	41.421471
291.269226	1294.269287	6813.852539	3618.153564	42.102535
291.639679	1290.630371	6797.202148	3648.368408	42.816803
292.010101	1294.820801	6810.876465	3669.651367	43.053055
292.380463	1293.828369	6840.539551	3709.349609	43.548714
292.750824	1298.680298	6882.332031	3761.509033	44.107845
293.121155	1300.775391	6928.756836	3817.196777	44.712681
293.491455	1307.502197	6990.068359	3870.347900	45.100143
293.861725	1310.920532	7072.000977	3925.814697	45.388950
294.231964	1313.125977	7184.479004	3997.491699	45.719711
294.602142	1314.669678	7298.721680	4077.219238	46.165203
294.972321	1314.669800	7398.077148	4133.458008	46.335678
295.342468	1316.213623	7496.991699	4198.077148	46.626225
295.712555	1317.095825	7559.295410	4248.030762	46.953560
296.082672	1318.419067	7583.776855	4279.899414	47.267540
296.452728	1315.882813	7585.761719	4290.265625	47.439240
296.822693	1319.080688	7589.400879	4296.220215	47.479866
297.192657	1321.065552	7589.180664	4308.350098	47.658421
297.562622	1322.388916	7606.824219	4325.994141	47.794353
297.932556	1326.027954	7627.886230	4339.557129	47.819691
298.302460	1328.233398	7634.833496	4345.622559	47.844940
298.672333	1327.792358	7640.347656	4350.694336	47.887135
299.042145	1329.005127	7636.597656	4357.751953	48.017475
299.411957	1330.218140	7623.033691	4365.912109	48.240631
299.781677	1326.027954	7584.768555	4359.075195	48.460983
300.151428	1326.579224	7523.125977	4340.438965	48.637733
300.521149	1326.248291	7458.727051	4309.121582	48.640583
300.890839	1322.829956	7386.829590	4280.120117	48.767979
301.260468	1317.095825	7310.961914	4242.517090	48.806919
301.630096	1318.418945	7223.515625	4199.952148	48.797394
301.999695	1319.080688	7102.436523	4144.043945	48.846439
302.369232	1316.323975	6976.063965	4076.777588	48.773502
302.738739	1314.449219	6859.727051	4029.250000	48.956985
303.108246	1310.699951	6722.106445	3961.432373	48.984169
303.477692	1311.251343	6610.841309	3894.497070	48.744255
303.847137	1311.361816	6522.182129	3847.852051	48.677368
304.216553	1311.361572	6456.680176	3820.063232	48.756977
304.585876	1310.369141	6397.794434	3793.046143	48.800266
304.955231	1309.597046	6350.267090	3768.124512	48.773823
305.324493	1306.619751	6311.010254	3742.872070	48.682301
305.693787	1306.178711	6280.244629	3721.589600	48.560089
306.063049	1306.509521	6274.399414	3713.429199	48.449539
306.432251	1307.391846	6272.414551	3709.569580	48.382011
306.801422	1305.627319	6267.783691	3705.819824	48.369949
307.170593	1304.524658	6268.334961	3699.203857	48.242760
307.539673	1303.642456	6275.171875	3696.447510	48.130165
307.908783	1304.304077	6290.831055	3703.725830	48.118099
308.277832	1302.650146	6307.150879	3717.620117	48.255959
308.646851	1300.444702	6338.357910	3733.388672	48.292690
309.015839	1303.973389	6378.717773	3756.104980	48.320301
309.384796	1298.239258	6410.586914	3777.056641	48.486870
309.753723	1295.151733	6446.205566	3782.680420	48.291649
310.122620	1294.600220	6472.339844	3791.612305	48.225910
310.491486	1296.144165	6484.690430	3792.715088	48.116959
310.860352	1299.342041	6501.231445	3800.544678	48.082577
311.229126	1299.452148	6515.456055	3807.712891	48.087784
311.597931	1298.680298	6523.726074	3803.191162	47.932800
311.966675	1300.224121	6544.016602	3811.240967	47.885509
312.335388	1300.665161	6579.523926	3820.062988	47.726185
312.704071	1298.680298	6617.236816	3830.098145	47.595959
313.072723	1301.326904	6632.564941	3836.604248	47.555130
313.441345	1301.988525	6630.139160	3834.729492	47.535088
313.809875	1302.650146	6611.061523	3813.997803	47.308838
314.178436	1298.459839	6573.018066	3793.928223	47.311420
314.546967	1304.193970	6535.194824	3766.690918	47.075066
314.915466	1304.635132	6494.283691	3733.278564	46.797844
315.283936	1308.604858	6440.911621	3707.474609	46.740574
315.652374	1309.266602	6398.125977	3673.841553	46.465717
316.020752	1307.943237	6345.084961	3638.774902	46.272900
316.389130	1313.236328	6299.542480	3607.126953	46.003807
