Jaz Data File
++++++++++++++++++++++++++++++++++++
Date: Thu Sep 26 04:30:44 2019
User: jaz
Dark Spectrum Present: Yes
Reference Spectrum Present: Yes
Processed Spectrum Present: Yes
Spectrometers: JAZA3541
Integration Time (usec): 100000 (JAZA3541)
Spectra Averaged: 1 (JAZA3541)
Boxcar Smoothing: 10 (JAZA3541)
Correct for Electrical Dark: No (JAZA3541)
Strobe/Lamp Enabled: Yes (JAZA3541)
Correct for Detector Non-linearity: No (JAZA3541)
Correct for Stray Light: No (JAZA3541)
Number of Pixels in Processed Spectrum: 2048
>>>>>Begin Processed Spectral Data<<<<<
W	D	R	S	P
190.543274	0.000000	0.000000	0.000000	0.000000
190.921555	0.000000	0.000000	0.000000	0.000000
191.299805	1296.805664	1336.172974	1264.385498	-82.353012
191.678024	1229.649658	1322.278564	1167.125122	-67.500023
192.056229	1345.435913	1313.015747	1234.281128	342.856934
192.434387	1331.541504	1278.279907	1157.862183	326.087341
192.812531	1303.752808	1324.594360	1234.281128	-333.332550
193.190659	1310.699951	1296.805664	1197.229492	816.669861
193.568741	1319.962891	1359.330200	1201.860962	-300.000000
193.946793	0.000000	0.000000	0.000000	0.000000
194.324829	1207.815674	1211.785522	1088.170044	-3013.858643
194.702835	1271.994385	1273.317627	1145.070679	-9591.873047
195.080811	1337.606445	1335.070313	1202.081665	5343.757324
195.458755	1337.827148	1332.203125	1199.324829	2462.690918
195.836685	1338.268188	1331.541626	1204.066284	1995.103760
196.214569	1339.811890	1336.172974	1201.309692	3806.138916
196.592422	1341.907104	1340.032471	1206.161621	7241.173340
196.970261	1342.679077	1342.127686	1207.595093	24498.738281
197.348068	1343.781860	1343.120117	1211.675171	19963.439453
197.725861	1344.222900	1342.127563	1216.086182	6115.327637
198.103622	1343.561279	1338.157837	1219.835449	2289.759521
198.481323	1340.253052	1337.496216	1221.268921	4315.967285
198.859039	1337.937378	1335.290771	1220.497070	4437.392090
199.236694	1335.070313	1335.621460	1221.710083	-20568.039063
199.614334	1333.416138	1335.511230	1224.466919	-5200.209961
199.991959	1329.115479	1337.937134	1226.010742	-1168.768555
200.369553	1324.373657	1337.826904	1225.018188	-738.524048
200.747101	1322.499023	1341.355835	1227.003174	-506.426270
201.124619	1320.514038	1341.576294	1230.752441	-426.172760
201.502136	1316.323608	1346.538452	1232.627075	-277.004700
201.879623	1313.677246	1349.736450	1233.288574	-222.935242
202.257065	1311.030640	1351.500854	1232.075562	-195.094284
202.634476	1309.927979	1352.934570	1230.752319	-184.101212
203.011871	1305.186279	1354.809082	1232.516724	-146.443878
203.389221	1303.091064	1361.866455	1232.957886	-119.324051
203.766571	1304.745117	1367.931519	1226.010742	-124.606522
204.143875	1300.334229	1365.064331	1229.098267	-110.050751
204.521164	1296.254272	1365.284912	1222.040894	-107.507881
204.898392	1297.798096	1363.300049	1218.953247	-120.370224
205.275620	1298.459717	1368.703369	1218.070923	-114.442787
205.652817	1293.718018	1368.482910	1216.085938	-103.834938
206.029984	1293.607666	1372.673218	1209.469604	-106.415573
206.407135	1291.953613	1374.988892	1209.359253	-99.469002
206.784225	1292.394775	1374.437378	1205.940796	-105.376938
207.161301	1293.607910	1372.893555	1203.073853	-114.187202
207.538376	1298.570190	1373.555176	1201.640381	-129.265625
207.915405	1302.209229	1370.798462	1201.529907	-146.785904
208.292404	1303.422119	1370.798584	1205.720337	-145.008774
208.669373	1305.406860	1366.718506	1206.712769	-160.971207
209.046310	1302.319336	1363.961670	1205.279175	-157.424545
209.423218	1303.863159	1361.645874	1206.161499	-169.084579
209.800095	1305.737793	1357.124756	1205.499878	-195.064880
210.176956	1308.715210	1353.265137	1207.264282	-227.724121
210.553787	1308.163818	1355.911743	1210.241577	-205.081665
210.930603	1309.597412	1356.242554	1208.036133	-217.731735
211.307358	1315.221313	1353.485718	1207.815674	-280.693359
211.684113	1317.316406	1349.846680	1214.983398	-314.577759
212.060837	1316.985596	1348.413086	1213.990845	-327.721832
212.437531	1316.765015	1350.839233	1217.740234	-290.614960
212.814178	1314.008179	1354.037109	1218.953247	-237.465576
213.190826	1312.574585	1351.280273	1217.519653	-245.583878
213.567413	1313.125977	1352.383057	1215.644897	-248.314651
213.943985	1310.258789	1357.345337	1219.835327	-192.036713
214.320541	1309.266479	1357.124756	1216.527222	-193.778931
214.697052	1307.612305	1361.315186	1219.945679	-163.243805
215.073563	1309.266357	1363.300049	1220.827881	-163.672836
215.449997	1303.863159	1360.874023	1221.489502	-144.487656
215.826431	1301.326904	1362.086914	1216.196411	-140.109421
216.202850	1300.334351	1364.954102	1215.314209	-131.569901
216.579224	1298.459717	1369.695923	1214.321655	-118.111374
216.955582	1300.885742	1374.989014	1210.021118	-122.618912
217.331894	1300.554932	1374.217041	1210.572510	-122.155640
217.708191	1300.003418	1376.863647	1211.234131	-115.494431
218.084442	1300.113770	1383.480103	1212.998535	-104.496902
218.460678	1296.915771	1384.141602	1213.549805	-95.574860
218.836899	1295.041260	1385.685303	1213.990845	-89.416153
219.213074	1292.615234	1387.339478	1214.321655	-82.654213
219.589233	1294.269287	1392.191650	1211.123657	-84.909744
219.965347	1296.805542	1398.697510	1211.344238	-83.874428
220.341431	1295.592529	1399.359131	1215.093506	-77.577003
220.717499	1296.254150	1400.241455	1215.865479	-77.306236
221.093552	1295.041260	1402.336548	1215.203735	-74.409164
221.469543	1299.011108	1407.078247	1215.865479	-76.938866
221.845535	1302.980835	1407.409058	1214.542236	-84.688408
222.221466	1305.296631	1411.709595	1216.306641	-83.627022
222.597397	1305.186279	1417.884766	1215.093506	-79.941422
222.973297	1302.760376	1426.706543	1215.424438	-70.462799
223.349167	1300.554932	1437.403076	1219.504517	-59.226536
223.725006	1297.467285	1446.996826	1223.915405	-49.188862
224.100800	1295.041260	1454.385010	1229.098267	-41.384109
224.476578	1295.372070	1465.081543	1231.413940	-37.686836
224.852325	1297.577515	1475.778076	1238.471436	-33.168289
225.228058	1298.680298	1495.847778	1239.905029	-29.809818
225.603760	1297.577637	1523.195313	1242.772095	-24.291334
225.979416	1295.261963	1552.086792	1245.749390	-19.278732
226.355057	1295.372192	1590.351318	1250.270630	-15.289747
226.730652	1296.805664	1642.069214	1257.989746	-11.242402
227.106232	1296.915894	1691.912231	1263.503418	-8.458933
227.481796	1294.159180	1736.903687	1268.355347	-5.828154
227.857315	1292.946167	1778.145630	1273.868896	-3.931841
228.232788	1296.033813	1815.638184	1277.508057	-3.565358
228.608246	1296.695435	1848.058350	1278.169678	-3.359993
228.983704	1297.026245	1883.345459	1285.998901	-1.880775
229.359100	1297.577637	1916.206665	1291.953735	-0.909091
229.734482	1293.166748	1945.870117	1297.798096	0.709564
230.109833	1290.189453	1973.768921	1302.429565	1.790591
230.485153	1290.189331	1989.979126	1307.943237	2.537034
230.860443	1289.527710	2012.585205	1315.772461	3.629691
231.235703	1293.166748	2031.331421	1315.552002	3.032556
231.610931	1293.607788	2055.481445	1321.506714	3.661884
231.986145	1293.056396	2079.300049	1322.940186	3.800831
232.361313	1290.189209	2098.708252	1325.586914	4.378092
232.736465	1287.983765	2121.313965	1327.792358	4.777049
233.111572	1285.888550	2134.656982	1327.681885	4.923997
233.486664	1288.865845	2141.052734	1330.769531	4.917194
233.861725	1290.409668	2141.604248	1333.305908	5.039534
234.236755	1292.284302	2138.957520	1338.047607	5.405073
234.611771	1296.474731	2120.873047	1342.127808	5.537745
234.986740	1298.900635	2101.023926	1344.553711	5.691528
235.361679	1299.782959	2083.710938	1349.515991	6.344082
235.736588	1298.570068	2073.235107	1353.926758	7.145887
236.111496	1297.908447	2069.375488	1359.550659	7.990259
236.486343	1298.459717	2071.139893	1369.475098	9.190786
236.861160	1301.106323	2071.250000	1372.121704	9.221056
237.235962	1300.334351	2079.961426	1383.369385	10.650609
237.610733	1302.760376	2089.996338	1393.404419	11.514215
237.985474	1301.437134	2106.978271	1403.549438	12.676237
238.360199	1300.665283	2140.501221	1417.774536	13.944302
238.734879	1301.767944	2177.662842	1432.551270	14.931395
239.109543	1300.334473	2227.616455	1454.936523	16.672604
239.484177	1304.635132	2281.650146	1481.071167	18.058681
239.858749	1310.810303	2350.680908	1512.719482	19.416759
240.233322	1311.361694	2434.047119	1548.557983	21.127583
240.607864	1313.126099	2511.899414	1585.940430	22.757792
240.982391	1314.559570	2592.618896	1628.946655	24.598787
241.356857	1316.213745	2651.063232	1664.564941	26.096664
241.731308	1315.000610	2704.435059	1690.699463	27.039696
242.105728	1317.977905	2744.684814	1713.966919	27.755457
242.480118	1312.354126	2785.926758	1735.580200	28.721087
242.854492	1310.479492	2835.880127	1761.273682	29.552511
243.228836	1309.045898	2893.442383	1790.054688	30.359118
243.603134	1312.905518	2957.290283	1824.018799	31.082340
243.977402	1312.023193	3046.721436	1866.584106	31.968725
244.351654	1310.920532	3168.241699	1921.058594	32.850433
244.725861	1310.810303	3315.235107	1993.618164	34.065029
245.100067	1311.912964	3466.970215	2062.648926	34.836014
245.474213	1311.361694	3603.377197	2127.709717	35.617035
245.848343	1316.985474	3710.341553	2186.926025	36.348148
246.222443	1318.198486	3794.700195	2232.689209	36.926716
246.596512	1318.419067	3855.019287	2264.668457	37.303844
246.970566	1321.286133	3892.181641	2291.354248	37.732693
247.344574	1320.845093	3904.862793	2301.278564	37.942215
247.718567	1317.206055	3891.740234	2308.225830	38.493168
248.092529	1318.749756	3859.430420	2308.336182	38.949657
248.466431	1315.441650	3833.075195	2302.491699	39.205471
248.840332	1313.236206	3807.051025	2299.404053	39.544548
249.214203	1311.030640	3809.476563	2294.552002	39.365326
249.588043	1313.787598	3825.797363	2306.902588	39.534679
249.961838	1310.038330	3853.696045	2321.237793	39.753754
250.335617	1313.677124	3886.888428	2339.432861	39.862862
250.709381	1313.456665	3901.664795	2352.003906	40.126110
251.083084	1318.198608	3899.569824	2356.525391	40.223846
251.456787	1314.780029	3882.367188	2348.916504	40.276588
251.830460	1316.434204	3829.656738	2329.397949	40.305370
252.204071	1313.456787	3746.069824	2295.213623	40.358116
252.577667	1310.038452	3638.995117	2240.518311	39.952652
252.951248	1310.369263	3513.615234	2188.580078	39.859859
253.324799	1308.604858	3406.099365	2141.824463	39.724518
253.698303	1305.737671	3326.152100	2104.883057	39.553539
254.071793	1305.296631	3267.817627	2075.330078	39.236954
254.445236	1304.083618	3233.853760	2056.363281	38.982864
254.818665	1300.113770	3219.959473	2044.122925	38.753590
255.192062	1300.003418	3219.077393	2043.350952	38.734699
255.565430	1300.444458	3243.888672	2045.335693	38.328407
255.938782	1301.878052	3283.365967	2055.039795	38.009907
256.312103	1304.745117	3340.266846	2076.102051	37.894802
256.685364	1306.730225	3419.442383	2099.038574	37.501953
257.058594	1304.965820	3518.357178	2141.714355	37.803913
257.431793	1302.098633	3646.714600	2185.712891	37.686951
257.804993	1302.760254	3790.178955	2234.122803	37.442936
258.178162	1299.672729	3928.240234	2286.061279	37.525707
258.551270	1298.128906	4052.517578	2325.869629	37.312843
258.924377	1294.379639	4145.587402	2356.525391	37.252483
259.297485	1293.938599	4222.999023	2384.865234	37.244934
259.670502	1293.056396	4286.625977	2403.280762	37.086975
260.043518	1295.151489	4346.063477	2423.350342	36.979069
260.416473	1298.569946	4394.473145	2441.545166	36.918957
260.789459	1297.026123	4449.830078	2455.990967	36.759811
261.162354	1297.246704	4497.467773	2469.333984	36.625195
261.535278	1298.349365	4541.796875	2480.140625	36.436268
261.908142	1298.790527	4576.092285	2491.719238	36.399723
262.280975	1301.216553	4595.279297	2496.791992	36.294861
262.653717	1302.870605	4609.834961	2498.997314	36.169930
263.026520	1300.113892	4627.809570	2500.320801	36.067207
263.399261	1297.357056	4643.688477	2504.952393	36.087139
263.771973	1296.915894	4654.495605	2505.173096	35.985958
264.144653	1298.239258	4653.502930	2496.020752	35.698582
264.517334	1301.106323	4633.103027	2484.993164	35.530853
264.889954	1302.208862	4586.678223	2460.843262	35.276154
265.262543	1305.627563	4506.179199	2422.909668	34.909046
265.635071	1308.053589	4405.610840	2377.256592	34.517620
266.007599	1311.802856	4310.224609	2324.105225	33.761173
266.380127	1312.133545	4240.201660	2291.243896	33.438782
266.752594	1315.882935	4205.575684	2269.299561	32.993702
267.125031	1315.000732	4197.084473	2251.766113	32.503059
267.497437	1313.236328	4212.963867	2246.583252	32.187401
267.869843	1316.544556	4239.098633	2249.009277	31.905815
268.242218	1313.567261	4277.473633	2256.397705	31.810400
268.614532	1311.913208	4335.697754	2269.961426	31.683744
268.986816	1312.354126	4430.973633	2293.008301	31.445135
269.359100	1311.471924	4539.150879	2325.097412	31.404161
269.731354	1310.038452	4652.510742	2350.570557	31.130613
270.103516	1311.030762	4749.219727	2378.579590	31.049744
270.475708	1311.361572	4830.049805	2401.295654	30.975580
270.847839	1314.890381	4902.499023	2419.821533	30.798542
271.219971	1318.419067	4961.053711	2427.981689	30.460442
271.592041	1320.403809	5006.596191	2432.723389	30.175299
271.964081	1321.065552	5036.369629	2441.324707	30.152555
272.336151	1316.434204	5064.048340	2438.347168	29.936726
272.708130	1316.654785	5090.182129	2432.723633	29.576275
273.080109	1313.015869	5107.385254	2433.495605	29.530066
273.452026	1311.582275	5141.238770	2437.465332	29.399061
273.823914	1310.369263	5176.085449	2444.191895	29.330208
274.195770	1310.369263	5215.893555	2450.036377	29.180899
274.567627	1309.376831	5261.987793	2459.960938	29.109470
274.939423	1310.700073	5304.332031	2470.988037	29.053453
275.311249	1312.243896	5345.464355	2482.566895	29.017084
275.682983	1310.479492	5376.120117	2487.860107	28.959290
276.054688	1309.707520	5401.151855	2486.978027	28.773958
276.426422	1307.943115	5403.577148	2478.928223	28.591059
276.798065	1312.243896	5370.495117	2464.592529	28.395203
277.169708	1313.236206	5325.172852	2441.214844	28.115566
277.541321	1317.757446	5277.536133	2425.004883	27.962357
277.912903	1316.985352	5267.832031	2415.521240	27.805075
278.284424	1316.764893	5279.741211	2414.638916	27.703270
278.655945	1315.882813	5301.685547	2418.829346	27.671879
279.027435	1312.574707	5332.010254	2432.392822	27.860085
279.398865	1310.920532	5391.226563	2450.477295	27.928217
279.770294	1307.502075	5467.424805	2464.923096	27.823137
280.141663	1310.810303	5539.763672	2490.396240	27.893095
280.513031	1313.015869	5615.631348	2517.964355	28.005026
280.884369	1315.993164	5680.912598	2541.342285	28.072662
281.255676	1314.559570	5725.462402	2562.404297	28.290007
281.626953	1313.787720	5763.727051	2576.629395	28.378851
281.998199	1316.654907	5805.189453	2591.075195	28.392792
282.369385	1313.346680	5856.245605	2608.387939	28.506935
282.740540	1313.236328	5915.572754	2628.567627	28.579643
283.111694	1311.802856	5983.280273	2652.166016	28.692488
283.482819	1310.479492	6070.064941	2677.087891	28.712761
283.853912	1314.559570	6165.339844	2715.462402	28.879948
284.224945	1315.441772	6257.858398	2750.639404	29.038380
284.595978	1313.346436	6348.502930	2785.485596	29.237209
284.966980	1311.030762	6425.914551	2824.081055	29.581324
285.337952	1309.817749	6500.238281	2858.706543	29.841297
285.708893	1306.730103	6535.746094	2890.685791	30.291658
286.079803	1305.406860	6558.352051	2912.299316	30.590313
286.450684	1304.745239	6574.893066	2935.787354	30.948696
286.821533	1307.391846	6588.677246	2954.092529	31.179924
287.192322	1306.399414	6596.506836	2978.903809	31.615698
287.563110	1307.391968	6602.571289	3013.418945	32.218494
287.933868	1303.642700	6627.272461	3047.272705	32.752651
288.304596	1299.672852	6668.735352	3093.366455	33.407948
288.675262	1300.885742	6725.304199	3140.673340	33.916771
289.045929	1301.326782	6777.683594	3184.782715	34.392498
289.416565	1300.113770	6826.645020	3231.648438	34.950218
289.787170	1296.805664	6843.957520	3267.707275	35.529976
290.157745	1293.718018	6845.170898	3302.112305	36.177811
290.528259	1293.497437	6840.870605	3336.517578	36.828606
290.898773	1294.820801	6830.614746	3370.261230	37.491287
291.269226	1294.269287	6813.852539	3407.864258	38.292656
291.639679	1290.630371	6797.202148	3442.600098	39.080029
292.010101	1294.820801	6810.876465	3488.252930	39.764503
292.380463	1293.828369	6840.539551	3539.198975	40.481117
292.750824	1298.680298	6882.332031	3587.828857	40.997334
293.121155	1300.775391	6928.756836	3639.326660	41.552219
293.491455	1307.502197	6990.068359	3693.029053	41.979744
293.861725	1310.920532	7072.000977	3758.751465	42.489098
294.231964	1313.125977	7184.479004	3824.252930	42.769135
294.602142	1314.669678	7298.721680	3894.827393	43.117237
294.972321	1314.669800	7398.077148	3961.431885	43.507893
295.342468	1316.213623	7496.991699	4023.294922	43.798389
295.712555	1317.095825	7559.295410	4070.381592	44.107620
296.082672	1318.419067	7583.776855	4108.094727	44.525402
296.452728	1315.882813	7585.761719	4131.362793	44.904854
296.822693	1319.080688	7589.400879	4147.131836	45.102180
297.192657	1321.065552	7589.180664	4161.908203	45.322121
297.562622	1322.388916	7606.824219	4183.080566	45.520264
297.932556	1326.027954	7627.886230	4193.225586	45.497654
298.302460	1328.233398	7634.833496	4211.089844	45.711739
298.672333	1327.792358	7640.347656	4222.777832	45.860752
299.042145	1329.005127	7636.597656	4230.828125	46.005238
299.411957	1330.218140	7623.033691	4232.041016	46.113266
299.781677	1326.027954	7584.768555	4222.777832	46.283272
300.151428	1326.579224	7523.125977	4207.009277	46.484440
300.521149	1326.248291	7458.727051	4186.058105	46.633835
300.890839	1322.829956	7386.829590	4156.394531	46.727650
301.260468	1317.095825	7310.961914	4120.666504	46.773998
301.630096	1318.418945	7223.515625	4078.321533	46.737637
301.999695	1319.080688	7102.436523	4033.109375	46.928268
302.369232	1316.323975	6976.063965	3977.973145	47.027763
302.738739	1314.449219	6859.727051	3922.064697	47.024075
303.108246	1310.699951	6722.106445	3860.091553	47.111443
303.477692	1311.251343	6610.841309	3805.285645	47.060890
303.847137	1311.361816	6522.182129	3752.796143	46.853168
304.216553	1311.361572	6456.680176	3716.186035	46.738110
304.585876	1310.369141	6397.794434	3688.838623	46.751930
304.955231	1309.597046	6350.267090	3666.122070	46.750233
305.324493	1306.619751	6311.010254	3645.391113	46.734390
305.693787	1306.178711	6280.244629	3634.915283	46.817566
306.063049	1306.509521	6274.399414	3617.492188	46.518398
306.432251	1307.391846	6272.414551	3609.001465	46.356480
306.801422	1305.627319	6267.783691	3597.863770	46.194359
307.170593	1304.524658	6268.334961	3595.768555	46.158970
307.539673	1303.642456	6275.171875	3594.334717	46.076214
307.908783	1304.304077	6290.831055	3589.593262	45.829273
308.277832	1302.650146	6307.150879	3591.137207	45.728577
308.646851	1300.444702	6338.357910	3605.142090	45.747063
309.015839	1303.973389	6378.717773	3617.161865	45.582367
309.384796	1298.239258	6410.586914	3634.474609	45.697895
309.753723	1295.151733	6446.205566	3646.935547	45.656361
310.122620	1294.600220	6472.339844	3657.631592	45.638279
310.491486	1296.144165	6484.690430	3662.262695	45.602726
310.860352	1299.342041	6501.231445	3665.681152	45.489990
311.229126	1299.452148	6515.456055	3673.510498	45.514889
311.597931	1298.680298	6523.726074	3674.282715	45.465679
311.966675	1300.224121	6544.016602	3680.347412	45.389351
312.335388	1300.665161	6579.523926	3688.066650	45.225708
312.704071	1298.680298	6617.236816	3696.226563	45.078892
313.072723	1301.326904	6632.564941	3702.843018	45.046124
313.441345	1301.988525	6630.139160	3702.733154	45.057751
313.809875	1302.650146	6611.061523	3694.683350	45.061188
314.178436	1298.459839	6573.018066	3675.716553	45.070255
314.546967	1304.193970	6535.194824	3654.764893	44.935390
314.915466	1304.635132	6494.283691	3624.770508	44.706982
315.283936	1308.604858	6440.911621	3600.510498	44.656445
315.652374	1309.266602	6398.125977	3577.683838	44.576141
316.020752	1307.943237	6345.084961	3545.704590	44.425220
316.389130	1313.236328	6299.542480	3517.033936	44.196999
